* Program: cpitch
** Version: 1.2.0
* Input: FinchCassins.wav
** Samples: 342048
** Samplerate: 44.10 (kHz)
* Spectrogram Parameters:
** Window size = 401
** FFT size = 512
** Tapers = 5
** Time support = 6.000000
** Frequency locking = 0.010000
** Time locking = 5.000000
* Harmonic template parameters:
** Max pitch jump = 80
** Pitch power threshold = 10000.000000
** Number of lobes = 7
** Lobe decay = 0.850000
** Negative lobe amplitude = 0.350000
** Negative lobe width = 9.000000
** Remask likelihood = True
** Frequency range: (0.017006802721088437, 0.3401360544217687) (rel)
** Pitch range: (0.021, 0.181) (rel)
** Candidate pitch count: 372
* DLFT spectrogram:
** Dimensions: (512, 1898)
* Particle filter parameters:
** Number of chains = 3
** Particles per chain = 100
** Random walk scale = 2.000000
** Backtrace pitch = True
* No mask file; calculating pitch for entire signal
** Element 0, interval (0.00, 7742.86)
+ Chain 0: forward particle filter
+ Chain 0: reverse Vitterbi filter
+ Chain 1: forward particle filter
+ Chain 1: reverse Vitterbi filter
+ Chain 2: forward particle filter
+ Chain 2: reverse Vitterbi filter
*** Pitch calculations:
time	p.sd	p.mmse	p.mmse.sd	p.map	p.map.sd	stim.pow
  0.00	1.3183	2.5525	0.1453	2.3891	0.1390	65.2636
  4.08	1.1908	2.2801	0.0717	1.9237	0.0053	64.6765
  8.16	1.1178	2.5082	0.1754	2.3063	0.4891	62.8937
 12.24	0.8023	2.4655	0.2846	2.4047	0.0699	63.5000
 16.33	0.8263	2.1714	0.1626	1.8070	0.0000	62.7099
 20.41	0.8727	2.4163	0.2238	2.1419	0.0000	64.3419
 24.49	0.4732	2.5502	0.0880	2.3664	0.0000	62.8688
 28.57	0.4094	2.7075	0.1166	2.8668	0.2693	63.3508
 32.65	0.6780	2.7256	0.1333	3.2020	1.0004	62.9896
 36.73	0.9772	3.3830	0.2147	3.2168	0.6287	62.4130
 40.82	0.7017	3.3545	0.3332	3.7973	0.0105	79.8560
 44.90	0.6911	3.2051	0.3416	3.6303	0.0000	87.1840
 48.98	0.6809	3.1770	0.2950	3.5671	0.0000	88.0254
 53.06	0.6456	3.2197	0.2300	3.5462	0.0000	88.7705
 57.14	0.5618	3.3024	0.1583	3.5255	0.0000	89.3862
 61.22	0.4811	3.3534	0.1076	3.5049	0.0000	89.2824
 65.31	0.3640	3.3822	0.0753	3.4640	0.0000	89.1345
 69.39	0.3671	3.3648	0.0693	3.4438	0.0000	88.1792
 73.47	0.3334	3.3677	0.0505	3.4438	0.0000	89.6654
 77.55	0.1974	3.4236	0.0210	3.4438	0.0000	90.6535
 81.63	0.1754	3.4481	0.0123	3.4640	0.0000	91.1090
 85.71	0.2014	3.5176	0.0152	3.5255	0.0000	89.5295
 89.80	0.2256	3.8026	0.0089	3.8270	0.0000	79.3522
 93.88	0.9325	3.6007	0.1026	3.2735	0.0450	70.2706
 97.96	0.8883	3.5035	0.1508	3.4170	0.0094	70.4306
102.04	1.1837	3.8703	0.0829	5.2729	0.0146	74.2054
106.12	1.1801	3.7016	0.1694	5.1708	0.0143	73.6468
110.20	1.3807	3.1956	0.2450	5.1911	0.0000	72.6071
114.29	1.4659	3.0916	0.1836	5.2832	0.0000	71.5604
118.37	1.4221	3.3924	0.2987	5.3039	0.0294	68.6883
122.45	1.4869	3.5754	0.3011	5.2115	0.0289	67.4056
126.53	1.3293	3.6905	0.6014	5.0708	0.0000	71.5520
130.61	1.1566	3.5876	0.7757	4.9243	0.0000	77.1212
134.69	1.1464	3.5588	0.7393	4.7820	0.0000	80.7872
138.78	1.1390	3.5490	0.6478	4.5898	0.0000	80.7014
142.86	1.0948	3.6370	0.4928	4.4572	0.0000	84.0881
146.94	0.9755	3.7239	0.4319	4.3539	0.0000	87.3838
151.02	0.9385	3.7135	0.3953	4.2530	0.0000	86.0591
155.10	0.7599	3.6056	0.2652	3.9874	0.0000	88.7657
159.18	0.5150	3.8343	0.1063	3.9640	0.0000	96.4908
163.27	0.4183	3.8950	0.0872	3.9640	0.0000	97.5140
167.35	0.1611	3.9763	0.0095	3.9874	0.0000	100.0014
171.43	0.1133	4.1773	0.0082	4.1788	0.0000	98.8619
175.51	0.1016	4.3913	0.0037	4.4052	0.0000	95.6354
179.59	0.4277	3.7112	0.1095	3.4640	0.0000	91.3127
183.67	0.0268	3.6932	0.0018	3.6948	0.0000	101.3431
187.76	0.0070	3.6929	0.0005	3.6948	0.0000	104.0409
191.84	0.0042	3.6955	0.0003	3.6948	0.0000	102.7009
195.92	0.0059	3.7153	0.0003	3.7165	0.0000	99.7996
200.00	0.0154	3.6499	0.0014	3.6517	0.0000	95.0361
204.08	0.0230	3.5536	0.0028	3.5462	0.0000	85.2878
208.16	0.3906	3.7051	0.0382	3.8047	0.0000	64.3841
212.24	0.9419	3.4644	0.2406	3.4408	0.7400	65.1725
216.33	0.7043	3.3791	0.1112	3.0948	0.1097	70.1568
220.41	0.3767	3.1664	0.0801	3.2589	0.1765	73.6730
224.49	0.0863	2.6873	0.0080	2.6922	0.0000	81.5601
228.57	0.4752	3.1040	0.0585	2.6922	0.0000	71.4289
232.65	0.6806	3.9529	0.1163	4.0108	0.0000	86.2962
236.73	0.4465	3.2362	0.0946	3.3183	0.0092	98.8918
240.82	0.5238	2.9738	0.1742	3.1911	0.0000	104.9293
244.90	0.5035	2.9815	0.1506	3.1724	0.0000	104.9578
248.98	0.3826	3.0671	0.0988	3.1724	0.0000	105.9005
253.06	0.3515	3.0486	0.0834	3.1354	0.0000	105.4234
257.14	0.2767	3.0649	0.0402	3.1171	0.0000	106.5158
261.22	0.2740	3.0655	0.0532	3.1171	0.0000	106.7478
265.31	0.2548	3.1427	0.0452	3.1911	0.0000	104.9573
269.39	0.2945	3.4441	0.0518	3.4640	0.0000	94.4125
273.47	0.9246	3.8573	0.3447	4.6533	0.0516	77.0763
277.55	1.2452	4.4257	0.6635	5.4627	0.1049	75.6836
281.63	1.1868	3.8551	0.5023	4.8384	0.0000	87.0018
285.71	1.0219	3.8990	0.6001	4.7541	0.0000	90.3078
289.80	0.9816	4.0638	0.6821	4.9243	0.0000	90.3602
293.88	1.0351	4.3911	0.6308	5.1106	0.0282	81.2894
297.96	1.2938	3.8656	0.5570	4.6632	1.0545	73.9012
302.04	0.9800	3.2777	0.4584	4.7910	1.0091	74.3330
306.12	1.2395	3.6644	0.7078	5.2524	0.0251	73.2029
310.20	1.1910	3.6975	0.8825	5.0411	0.0000	75.8179
314.29	1.0888	3.6627	0.9407	4.8764	0.0135	82.4469
318.37	1.0590	3.6743	0.8716	4.6987	0.0000	86.7331
322.45	1.0233	3.6327	0.7565	4.4834	0.0000	89.1443
326.53	0.9988	3.6010	0.6326	4.3284	0.0000	92.4435
330.61	0.8629	3.6354	0.5704	4.1788	0.0000	96.1250
334.69	0.8339	3.5517	0.5075	4.0344	0.0000	97.5259
338.78	0.7806	3.5774	0.4072	3.9640	0.0000	92.7542
342.86	0.6985	3.4090	0.3114	3.6517	0.0000	98.1818
346.94	0.6443	3.5569	0.1676	3.7824	0.0000	103.2846
351.02	0.6113	3.6580	0.1379	3.8495	0.0000	102.6536
355.10	0.5300	3.9559	0.1014	4.0820	0.0000	100.7009
359.18	0.5227	4.1316	0.1147	4.2530	0.0000	99.5004
363.27	0.5529	3.3696	0.1468	3.3837	0.0000	98.1563
367.35	0.5051	3.3650	0.1319	3.5049	0.0000	106.6941
371.43	0.4171	3.4790	0.0799	3.5671	0.0000	107.7581
375.51	0.2653	3.5579	0.0599	3.5880	0.0000	105.8474
379.59	0.2565	3.5159	0.0569	3.5462	0.0000	101.3064
383.67	0.2841	3.3570	0.0750	3.4036	0.0000	82.8197
387.76	0.3593	3.5770	0.0774	3.5671	0.0000	68.3401
391.84	0.2133	3.7667	0.0325	3.7383	0.0000	69.5332
395.92	0.1678	3.7620	0.0168	3.7973	0.0105	67.1369
400.00	0.3499	3.9228	0.0349	3.8949	0.0000	64.7306
404.08	0.3318	4.0609	0.0401	4.0425	0.0449	67.0762
408.16	0.3609	3.8044	0.0702	3.8270	0.0000	70.0235
412.24	0.1702	3.5348	0.0202	3.5462	0.0000	77.2014
416.33	0.3491	4.5651	0.0283	4.4932	0.0986	85.3844
420.41	0.1853	3.3036	0.0052	3.2287	0.0000	100.9495
424.49	0.0165	3.0118	0.0008	3.0094	0.0000	112.1146
428.57	0.0068	2.9599	0.0003	2.9569	0.0000	113.0443
432.65	0.0081	2.9105	0.0006	2.9053	0.0000	111.2668
436.73	0.0084	2.8815	0.0004	2.8884	0.0000	110.8212
440.82	0.0083	2.8762	0.0010	2.8715	0.0000	110.3305
444.90	0.0075	2.9186	0.0004	2.9224	0.0000	110.7597
448.98	0.0089	3.0151	0.0008	3.0094	0.0000	111.6931
453.06	0.0418	3.1821	0.0008	3.1724	0.0000	105.9413
457.14	0.2193	3.8023	0.0087	3.8121	0.0105	87.9155
461.22	0.7276	4.9563	0.0965	5.1006	0.0000	80.1449
465.31	0.3426	4.4214	0.0361	4.4834	0.0000	93.0633
469.39	0.3600	4.2896	0.0931	4.3539	0.0000	99.5693
473.47	0.4021	4.4449	0.1115	4.5097	0.0000	95.1142
477.55	0.5883	4.6643	0.2615	4.8384	0.0000	92.2625
481.63	0.5606	4.8805	0.2146	5.0411	0.0000	84.2160
485.71	0.8344	5.1151	0.3567	5.4723	0.0000	77.3431
489.80	0.9933	4.3598	0.7327	5.3560	0.0295	81.9566
493.88	0.7668	3.8708	0.7098	5.0906	0.0141	78.1699
497.96	0.8353	4.3743	0.4615	4.9243	0.0000	85.0953
502.04	0.7218	4.3640	0.4375	4.7263	0.0000	87.8884
506.12	0.6991	4.1041	0.4914	4.4834	0.0000	91.5014
510.20	0.6670	3.9727	0.4346	4.3284	0.0000	96.6040
514.29	0.6435	3.8120	0.4266	4.1544	0.0000	98.4591
518.37	0.5798	3.6756	0.4010	3.9640	0.0000	101.5991
522.45	0.5372	3.5830	0.3459	3.8270	0.0000	103.8890
526.53	0.5225	3.5444	0.3178	3.7603	0.0000	102.2744
530.61	0.4540	3.5163	0.2042	3.6732	0.0000	100.4289
534.69	0.3737	3.5420	0.1294	3.6303	0.0000	107.7944
538.78	0.3840	3.6472	0.1313	3.7383	0.0000	106.1308
542.86	0.3910	3.9485	0.1240	4.0581	0.0000	102.1719
546.94	0.3645	4.1353	0.1007	4.2034	0.0000	102.5697
551.02	0.3537	3.4827	0.0631	3.4236	0.0000	100.0593
555.10	0.2422	3.5041	0.0501	3.5462	0.0000	107.7923
559.18	0.2690	3.5409	0.0611	3.5880	0.0000	108.8815
563.27	0.2270	3.5769	0.0419	3.6091	0.0000	106.6811
567.35	0.1917	3.5328	0.0299	3.5462	0.0000	96.4302
571.43	0.1446	3.7364	0.0241	3.8270	0.0000	71.9860
575.51	0.1408	3.7755	0.0278	3.8270	0.0000	69.6866
579.59	0.1056	3.6428	0.0160	3.6091	0.0000	71.5918
583.67	0.1442	3.6950	0.0059	3.6732	0.0000	69.4811
587.76	0.2233	3.7170	0.0120	3.7093	0.0205	71.5916
591.84	0.1862	3.8681	0.0141	3.7389	0.0624	70.9311
595.92	0.3573	3.6604	0.0543	3.5814	0.0497	71.5088
600.00	0.4662	3.4891	0.0197	3.4103	0.0094	79.1398
604.08	0.2962	3.6105	0.0084	3.4912	0.0097	95.9830
608.16	0.0433	3.0265	0.0027	3.0271	0.0000	109.5829
612.24	0.0057	2.9055	0.0004	2.9053	0.0000	115.2643
616.33	0.0023	2.8383	0.0001	2.8380	0.0000	114.2379
620.41	0.0020	2.7886	0.0001	2.7885	0.0000	113.2815
624.49	0.0026	2.7399	0.0000	2.7399	0.0000	112.8055
628.57	0.0020	2.7400	0.0002	2.7399	0.0000	113.9260
632.65	0.0085	2.8295	0.0005	2.8380	0.0000	111.7459
636.73	0.0093	2.9835	0.0009	2.9918	0.0000	112.7455
640.82	0.0348	3.1356	0.0045	3.1354	0.0000	107.1702
644.90	0.5299	3.5239	0.1015	3.3771	0.0093	84.7974
648.98	0.4074	4.3283	0.0635	4.2780	0.0000	88.0889
653.06	0.1236	3.8518	0.0146	3.8270	0.0000	101.2837
657.14	0.1203	3.8705	0.0124	3.8722	0.0000	103.2281
661.22	0.0282	4.2359	0.0034	4.2281	0.0000	99.4691
665.31	0.1684	4.4842	0.0046	4.4834	0.0000	93.0117
669.39	0.5592	4.5724	0.0314	4.7541	0.0000	80.9583
673.47	0.7553	4.5943	0.0739	4.9243	0.0000	79.8080
677.55	0.5817	4.7328	0.1042	4.9243	0.0000	80.7777
681.63	0.3416	4.7589	0.0576	4.8384	0.0000	85.1154
685.71	0.0269	4.5994	0.0023	4.6167	0.0000	87.8460
689.80	0.0229	4.4390	0.0013	4.4572	0.0000	93.2176
693.88	0.0229	4.1965	0.0015	4.2034	0.0000	95.6468
697.96	0.0168	3.9513	0.0015	3.9640	0.0000	99.0741
702.04	0.0092	3.7807	0.0004	3.7824	0.0000	103.9069
706.12	0.0101	3.6498	0.0009	3.6517	0.0000	105.2081
710.20	0.0107	3.5087	0.0005	3.5049	0.0000	106.1410
714.29	0.0063	3.3629	0.0002	3.3639	0.0000	106.7737
718.37	0.0104	3.2561	0.0011	3.2668	0.0000	107.3386
722.45	0.0104	3.1843	0.0011	3.1911	0.0000	110.6768
726.53	0.0109	3.1030	0.0011	3.0989	0.0000	112.6714
730.61	0.0053	3.0462	0.0003	3.0449	0.0000	114.4036
734.69	0.0075	2.9886	0.0006	2.9918	0.0000	114.1889
738.78	0.0052	2.9379	0.0003	2.9396	0.0000	114.5379
742.86	0.0027	2.9057	0.0003	2.9053	0.0000	114.3140
746.94	0.0048	2.8873	0.0002	2.8884	0.0000	113.0880
751.02	0.0063	2.8740	0.0006	2.8715	0.0000	113.1684
755.10	0.0041	2.8710	0.0002	2.8715	0.0000	113.8346
759.18	0.0073	2.8756	0.0002	2.8715	0.0000	113.1552
763.27	0.0042	2.9228	0.0001	2.9224	0.0000	114.4531
767.35	0.0040	2.9927	0.0004	2.9918	0.0000	114.9771
771.43	0.0074	3.1022	0.0001	3.0989	0.0000	114.4031
775.51	0.0171	3.2573	0.0006	3.2477	0.0000	109.5654
779.59	0.0092	3.4462	0.0004	3.4438	0.0000	107.8017
783.67	0.0138	3.5874	0.0005	3.5880	0.0000	107.6682
787.76	0.0134	3.6874	0.0012	3.6948	0.0000	108.0554
791.84	0.1011	3.4759	0.0096	3.5255	0.0000	103.7641
795.92	0.0966	2.9296	0.0098	2.9743	0.0000	105.8265
800.00	0.2487	2.7623	0.0094	2.7722	0.0000	95.1639
804.08	0.1512	2.9921	0.0225	3.0449	0.0000	86.3271
808.16	0.0539	2.8912	0.0054	2.8997	0.0080	87.5973
812.24	0.0484	2.8754	0.0012	2.8715	0.0000	83.7644
816.33	0.0434	2.9098	0.0024	2.9053	0.0000	86.8409
820.41	0.1126	2.9465	0.0024	2.9743	0.0000	79.9652
824.49	0.0852	2.9627	0.0049	2.9224	0.0000	83.5971
828.57	0.2246	3.1334	0.0115	3.1911	0.0000	75.8319
832.65	0.3237	3.2996	0.0149	3.5247	0.3644	76.9678
836.73	0.2910	3.9187	0.0287	3.9874	0.0000	92.4907
840.82	0.1187	4.0949	0.0103	4.1060	0.0000	98.8601
844.90	0.0332	4.1962	0.0006	4.2034	0.0000	102.7553
848.98	0.0053	4.2790	0.0004	4.2780	0.0000	106.3960
853.06	0.0083	4.3253	0.0007	4.3284	0.0000	106.9417
857.14	0.0051	4.3294	0.0006	4.3284	0.0000	108.1964
861.22	0.0015	4.3538	0.0001	4.3539	0.0000	108.0760
865.31	0.0140	4.3627	0.0011	4.3539	0.0000	104.9911
869.39	0.0211	4.3566	0.0014	4.3539	0.0000	102.4920
873.47	0.0442	4.3855	0.0011	4.3795	0.0000	100.3831
877.55	0.0670	4.1580	0.0055	4.1544	0.0000	99.0594
881.63	0.1153	4.3079	0.0132	4.2530	0.0000	96.7885
885.71	0.0652	4.1163	0.0043	4.1301	0.0000	98.6866
889.80	0.1244	4.4560	0.0059	4.5097	0.0000	95.3476
893.88	0.0535	3.8994	0.0100	3.8722	0.0000	102.0704
897.96	0.1114	4.2562	0.0017	4.3284	0.0000	98.3732
902.04	0.0540	3.8680	0.0103	3.8270	0.0000	103.1520
906.12	0.1793	4.2610	0.0120	4.1060	0.0000	97.1466
910.20	0.0499	3.7513	0.0122	3.7383	0.0000	102.8942
914.29	0.1495	3.8890	0.0139	3.8270	0.0000	99.9180
918.37	0.0891	3.5866	0.0075	3.5741	0.0197	102.8227
922.45	0.0673	3.6148	0.0059	3.5880	0.0000	103.0908
926.53	0.1244	3.7697	0.0117	3.6948	0.0000	99.8012
930.61	0.0498	3.5240	0.0088	3.4844	0.0000	104.7485
934.69	0.0998	3.8601	0.0046	3.7824	0.0000	99.5866
938.78	0.0671	3.3533	0.0015	3.3247	0.0000	104.8007
942.86	0.0316	3.4098	0.0029	3.4036	0.0000	104.7493
946.94	0.0949	3.7424	0.0043	3.7824	0.0000	101.1107
951.02	0.0384	3.1789	0.0057	3.1724	0.0000	108.7432
955.10	0.0193	3.2295	0.0007	3.2287	0.0000	111.6751
959.18	0.0717	3.4027	0.0077	3.4236	0.0000	102.9068
963.27	0.0177	3.1844	0.0032	3.1724	0.0000	111.7076
967.35	0.0094	3.1969	0.0004	3.1911	0.0000	114.1685
971.43	0.0088	3.1475	0.0004	3.1539	0.0000	115.1949
975.51	0.0092	3.0738	0.0016	3.0808	0.0000	115.2660
979.59	0.0045	3.0089	0.0003	3.0094	0.0000	116.3259
983.67	0.0064	2.9372	0.0007	2.9396	0.0000	115.1552
987.76	0.0074	2.8691	0.0006	2.8715	0.0000	114.7470
991.84	0.0104	2.8129	0.0010	2.8049	0.0000	113.6506
995.92	0.0103	2.7706	0.0013	2.7722	0.0000	113.4317
1000.00	0.0072	2.7359	0.0011	2.7399	0.0000	114.4866
1004.08	0.0081	2.6590	0.0005	2.6608	0.0000	113.0511
1008.16	0.0203	2.6301	0.0015	2.6298	0.0000	106.8995
1012.24	0.0728	2.6929	0.0024	2.6922	0.0000	83.8114
1016.33	0.1831	3.1664	0.0261	3.1354	0.0000	74.6139
1020.41	0.0495	3.0924	0.0040	3.0449	0.0000	83.8018
1024.49	0.0325	2.9750	0.0030	2.9743	0.0000	83.6725
1028.57	0.0435	2.9240	0.0039	2.9224	0.0000	88.3377
1032.65	0.1477	3.0853	0.0079	3.0808	0.0000	75.5583
1036.73	0.0883	2.8950	0.0091	2.8884	0.0000	83.9929
1040.82	0.0218	2.7627	0.0032	2.7722	0.0000	97.9862
1044.90	0.0096	2.7561	0.0013	2.7560	0.0000	108.1695
1048.98	0.0070	2.7524	0.0001	2.7560	0.0000	111.2077
1053.06	0.0069	2.6780	0.0009	2.6764	0.0000	113.3699
1057.14	0.0040	2.5830	0.0001	2.5839	0.0000	115.3102
1061.22	0.0035	2.5248	0.0003	2.5240	0.0000	115.3929
1065.31	0.0023	2.5094	0.0000	2.5093	0.0000	115.7755
1069.39	0.0144	2.4441	0.0006	2.4511	0.0000	110.6747
1073.47	0.0145	2.4683	0.0012	2.4655	0.0000	105.0150
1077.55	0.0506	2.6127	0.0049	2.5688	0.0000	98.1822
1081.63	0.1374	2.7346	0.0338	2.7410	0.1845	89.2524
1085.71	0.8172	3.1549	0.5723	3.7769	1.0743	93.6557
1089.80	0.8678	3.1006	0.6162	3.5869	1.0129	98.9854
1093.88	0.7925	2.8802	0.5865	3.3354	0.9386	101.9518
1097.96	1.1133	3.0408	0.5817	3.1296	0.9363	92.1807
1102.04	0.8846	2.6255	0.5736	3.0335	0.8754	102.2521
1106.12	0.8978	3.0507	0.6156	3.1867	0.9080	96.6262
1110.20	0.7954	2.9363	0.6055	3.1091	0.9060	103.0835
1114.29	0.8604	3.3185	0.6524	3.0979	0.8748	97.2296
1118.37	0.6887	2.8762	0.5683	2.9908	0.8445	101.2930
1122.45	0.6116	3.0097	0.7461	3.1161	0.8799	95.8087
1126.53	0.4184	2.1458	0.5064	2.1413	0.6046	101.9302
1130.61	0.3148	2.0343	0.5134	2.0672	0.5837	104.5525
1134.69	0.3200	2.0207	0.5176	2.0916	0.5906	109.7434
1138.78	0.3216	2.0638	0.5273	2.1287	0.6011	112.6148
1142.86	0.3111	2.1190	0.5522	2.1793	0.6154	115.9082
1146.94	0.3215	2.1726	0.5586	2.2310	0.6300	114.8300
1151.02	0.3258	2.2094	0.5749	2.2705	0.6411	115.4244
1155.10	0.3619	2.2557	0.5641	2.3108	0.6525	115.5797
1159.18	0.3858	2.3061	0.5578	2.3518	0.6641	115.4161
1163.27	0.3944	2.3878	0.5665	2.4076	0.6799	114.7360
1167.35	0.3843	2.4689	0.5776	2.4648	0.6960	115.9350
1171.43	0.4187	2.5988	0.5628	2.5530	0.7209	114.9416
1175.51	0.4585	2.7677	0.5331	2.6599	0.7511	113.5450
1179.59	0.5610	2.9840	0.5315	2.8706	0.8106	105.5113
1183.67	0.6225	3.1337	0.5037	2.9908	0.8445	100.3410
1187.76	0.4521	2.4695	0.4985	2.4218	0.6839	107.7367
1191.84	0.3209	2.1843	0.4547	2.1039	0.5941	100.2994
1195.92	0.3596	2.3216	0.4260	2.2179	0.6263	99.2088
1200.00	0.3817	2.7216	0.5719	2.6044	0.7381	109.3771
1204.08	0.0979	2.7198	0.7587	2.7071	0.7644	112.3723
1208.16	0.0277	2.6638	0.7513	2.6756	0.7555	111.7450
1212.24	0.0085	2.5581	0.7217	2.5530	0.7209	113.8221
1216.33	0.0188	2.4700	0.6989	2.4648	0.6960	106.1851
1220.41	0.1030	2.4215	0.6744	2.3381	0.6602	85.8488
1224.49	0.1080	2.4586	0.6843	2.4793	0.7001	83.3521
1228.57	0.0942	2.4245	0.6926	2.4360	0.6879	81.5433
1232.65	0.1705	2.4874	0.7335	2.5232	0.7125	78.2546
1236.73	0.1749	2.4463	0.7126	2.4648	0.6960	76.3931
1240.82	0.1264	2.4469	0.7265	2.4938	0.7042	78.5813
1244.90	0.1540	2.4879	0.7544	2.6136	0.7380	79.6400
1248.98	0.1886	2.6871	0.7751	2.7779	0.7872	82.7044
1253.06	0.1352	2.9347	0.8709	2.9734	0.8396	91.8105
1257.14	0.1059	3.0393	0.8853	3.0618	0.8646	98.3905
1261.22	0.0758	3.1172	0.8943	3.1345	0.8851	104.8912
1265.31	0.0557	3.2144	0.9140	3.2277	0.9114	106.6995
1269.39	0.0406	3.3771	0.9576	3.3827	0.9552	104.8852
1273.47	0.0178	3.4441	0.9720	3.4427	0.9721	104.1855
1277.55	0.0149	3.4942	0.9879	3.5038	0.9894	98.3617
1281.63	0.0649	3.2646	0.9186	3.2658	0.9222	94.3943
1285.71	0.0755	3.0933	0.8676	3.1161	0.8799	92.6349
1289.80	0.0713	3.0985	0.8760	3.1161	0.8799	89.7008
1293.88	0.4425	3.0098	0.8654	2.9044	0.8201	84.3278
1297.96	0.7106	3.8770	1.1423	4.2817	1.2005	85.0813
1302.04	0.5014	3.9268	1.2570	4.1095	1.1522	93.6323
1306.12	0.3630	3.7795	1.1546	3.8937	1.0995	96.3064
1310.20	0.2456	3.5562	1.0709	3.6292	1.0248	102.0016
1314.29	0.1533	3.2751	0.9804	3.3237	0.9385	103.2493
1318.37	0.1033	3.0464	0.8914	3.0618	0.8646	107.4590
1322.45	0.1381	2.9691	0.8540	2.9908	0.8445	108.0493
1326.53	0.4386	2.6729	0.7483	2.9560	0.8347	103.1291
1330.61	0.2485	2.3474	0.6338	2.3244	0.6564	109.0958
1334.69	0.2662	2.6090	0.6962	2.5831	0.7294	113.5119
1338.78	0.2772	2.6664	0.7233	2.6444	0.7467	112.5357
1342.86	0.2862	2.6270	0.6978	2.5983	0.7337	113.6924
1346.94	0.2841	2.5872	0.6715	2.5530	0.7209	115.0254
1351.02	0.3448	2.5248	0.5858	2.4504	0.6919	114.7652
1355.10	0.3596	2.4240	0.5093	2.3244	0.6564	114.8345
1359.18	0.3514	2.3175	0.4199	2.1793	0.6154	112.3005
1363.27	0.4642	2.5894	0.3341	2.5173	0.7084	102.2228
1367.35	0.3860	2.5607	0.2294	2.2573	0.6374	97.6962
1371.43	0.5455	2.8813	0.2854	2.9430	1.0938	83.4329
1375.51	0.4534	2.7858	0.1018	2.7934	0.4064	79.9196
1379.59	0.3674	2.9523	0.0903	3.0628	0.0000	81.9436
1383.67	0.2616	3.0284	0.0287	3.1354	0.0000	80.1574
1387.76	0.2712	2.8725	0.0570	2.9396	0.0000	79.0102
1391.84	0.2555	2.9224	0.0506	2.9918	0.0000	86.1551
1395.92	0.2061	3.5556	0.0368	3.6091	0.0000	91.8241
1400.00	0.0367	3.6405	0.0012	3.6517	0.0000	98.7869
1404.08	0.0207	3.6994	0.0027	3.6948	0.0000	103.8654
1408.16	0.0136	3.8056	0.0013	3.8047	0.0000	108.6849
1412.24	0.0110	3.9163	0.0007	3.9178	0.0000	109.2015
1416.33	0.0100	4.0086	0.0004	4.0108	0.0000	107.5944
1420.41	0.0165	4.0637	0.0020	4.0581	0.0000	103.7722
1424.49	0.0629	3.9460	0.0005	3.9178	0.0000	94.5535
1428.57	0.1583	3.6891	0.0075	3.7824	0.0000	86.5422
1432.65	0.1709	3.4109	0.0123	3.3837	0.0000	85.8690
1436.73	0.2252	3.2971	0.0103	3.3577	0.0466	85.0816
1440.82	0.9796	4.5415	0.2501	5.2318	0.0145	86.2928
1444.90	0.7000	4.7450	0.3970	5.0708	0.0000	94.1568
1448.98	0.6263	4.5345	0.3219	4.7820	0.0000	96.6817
1453.06	0.5594	4.2628	0.2541	4.4834	0.0000	102.9696
1457.14	0.5200	3.7690	0.2640	3.9640	0.0000	104.9644
1461.22	0.3229	3.6533	0.0868	3.7165	0.0000	109.6563
1465.31	0.2786	3.5477	0.0654	3.5880	0.0000	106.9100
1469.39	0.5698	3.0322	0.0539	3.5671	0.0000	101.7719
1473.47	0.2669	2.7769	0.0678	2.8270	0.0156	110.1390
1477.55	0.2349	3.0951	0.0406	3.1171	0.0000	113.5097
1481.63	0.1214	3.1637	0.0105	3.1724	0.0000	114.3547
1485.71	0.0345	3.1165	0.0008	3.1171	0.0000	114.3893
1489.80	0.0099	3.0188	0.0021	3.0271	0.0000	113.8217
1493.88	0.0085	2.8680	0.0012	2.8715	0.0000	114.0192
1497.96	0.0110	2.7072	0.0010	2.7080	0.0000	114.2145
1502.04	0.0841	2.5583	0.0061	2.5093	0.0000	106.6350
1506.12	0.0963	2.9314	0.0108	2.9396	0.0000	99.4492
1510.20	0.0869	2.8238	0.0076	2.8547	0.0000	87.3310
1514.29	0.3589	2.8750	0.0664	2.7797	0.1060	78.1800
1518.37	0.1522	2.8792	0.0045	2.8997	0.0080	82.1101
1522.45	0.0861	3.0506	0.0114	3.1354	0.0000	79.8804
1526.53	0.1158	3.1194	0.0099	3.1724	0.0000	77.9708
1530.61	0.0963	3.0754	0.0115	3.0808	0.0000	82.6439
1534.69	0.2510	3.2068	0.0120	3.5255	0.0000	86.6998
1538.78	0.0739	3.6217	0.0082	3.6303	0.0000	95.5393
1542.86	0.0746	3.7063	0.0078	3.7165	0.0000	102.9371
1546.94	0.0162	3.8078	0.0004	3.8047	0.0000	107.0549
1551.02	0.0161	3.9062	0.0002	3.9178	0.0000	108.4193
1555.10	0.0098	4.0112	0.0010	4.0108	0.0000	108.3195
1559.18	0.0143	4.0786	0.0003	4.0820	0.0000	105.2748
1563.27	0.0221	4.0879	0.0052	4.0820	0.0000	101.3297
1567.35	0.1162	3.9206	0.0031	3.9409	0.0000	90.4322
1571.43	0.1208	3.7012	0.0184	3.8047	0.0000	87.1239
1575.51	0.5874	3.5956	0.0789	3.9835	0.4520	78.6695
1579.59	0.9439	3.5610	0.0683	5.2732	0.0581	79.8648
1583.67	1.1590	4.0245	0.4672	5.1911	0.0000	89.1588
1587.76	1.1680	4.0409	0.4378	5.0708	0.0000	95.0676
1591.84	1.0934	3.8145	0.2521	4.6439	0.0000	98.9569
1595.92	1.0144	3.5641	0.2662	4.3795	0.0000	103.6073
1600.00	0.8594	3.2772	0.2111	3.8495	0.0000	106.7499
1604.08	0.7051	3.2999	0.2369	3.6732	0.0000	109.4936
1608.16	0.6605	3.2615	0.2380	3.5671	0.0000	105.2887
1612.24	0.4584	2.5088	0.1410	2.5688	0.0000	104.7387
1616.33	0.4069	2.7721	0.1188	2.9053	0.0000	111.8563
1620.41	0.4146	2.9588	0.1548	3.0989	0.0000	115.1745
1624.49	0.3706	3.0118	0.1254	3.1171	0.0000	115.0016
1628.57	0.3536	2.9645	0.1075	3.0628	0.0000	113.8647
1632.65	0.3619	2.8503	0.1324	2.9569	0.0000	115.1627
1636.73	0.3399	2.7328	0.1166	2.8380	0.0000	114.6335
1640.82	0.3278	2.5816	0.1139	2.6764	0.0000	113.7805
1644.90	0.3104	2.4387	0.0493	2.3664	0.0000	103.3840
1648.98	0.3313	2.7606	0.1054	2.8547	0.0000	100.4750
1653.06	0.3674	2.8033	0.1121	2.8049	0.0000	85.5732
1657.14	0.3742	2.9207	0.0349	2.7103	0.1140	76.8983
1661.22	0.1235	2.9600	0.0065	2.9224	0.0000	82.9968
1665.31	0.0690	3.0893	0.0035	3.0449	0.0000	79.5361
1669.39	0.1134	3.0972	0.0102	3.1354	0.0000	79.8240
1673.47	0.0981	2.9984	0.0125	2.9918	0.0000	85.8126
1677.55	0.1922	3.3245	0.0295	3.4640	0.0000	87.3009
1681.63	0.1014	3.6428	0.0020	3.6732	0.0000	94.6619
1685.71	0.0377	3.7553	0.0018	3.7603	0.0000	102.5978
1689.80	0.0116	3.8336	0.0003	3.8270	0.0000	107.5570
1693.88	0.0140	3.9283	0.0007	3.9178	0.0000	108.3186
1697.96	0.0116	4.0120	0.0007	4.0108	0.0000	107.6556
1702.04	0.0110	4.1259	0.0003	4.1301	0.0000	104.9832
1706.12	0.0570	4.2316	0.0035	4.2780	0.0000	97.5865
1710.20	0.1677	4.0277	0.0131	4.1788	0.0000	93.1943
1714.29	0.2521	3.6171	0.0171	3.6304	0.0174	84.3997
1718.37	0.1428	3.7610	0.0057	3.7604	0.0180	87.9837
1722.45	0.9484	3.4449	0.0268	5.3351	0.0295	82.8267
1726.53	1.0347	3.7717	0.7500	5.2012	0.0144	89.0366
1730.61	0.9793	3.7296	0.8338	5.0314	0.0367	94.3842
1734.69	0.8927	3.5170	0.7632	4.6351	0.0510	98.4194
1738.78	0.8211	3.2154	0.6898	4.1871	0.0231	103.0418
1742.86	0.6286	2.6596	0.7203	3.7457	0.0104	107.7238
1746.94	0.5910	2.5512	0.7554	3.6091	0.0000	107.5646
1751.02	0.5860	2.4215	0.7951	3.5462	0.0000	104.2869
1755.10	0.4879	1.9585	0.4484	2.5589	0.0284	104.4117
1759.18	0.5589	2.1836	0.4641	2.8547	0.0000	111.4917
1763.27	0.6226	2.3809	0.4881	3.0628	0.0000	114.4513
1767.35	0.6362	2.4486	0.4288	3.0449	0.0000	114.9319
1771.43	0.6379	2.4559	0.3933	3.0094	0.0000	114.6125
1775.51	0.6207	2.4791	0.3226	2.9396	0.0000	114.1450
1779.59	0.5925	2.4331	0.2857	2.8380	0.0000	115.2246
1783.67	0.5503	2.3779	0.2311	2.7080	0.0000	114.0958
1787.76	0.4380	2.3109	0.1709	2.5991	0.0000	106.3796
1791.84	0.5140	2.6258	0.1738	2.9116	0.0567	96.9053
1795.92	0.4792	2.5924	0.1816	2.7940	0.0077	86.7611
1800.00	0.4291	2.5584	0.1277	2.5995	0.0434	77.0503
1804.08	0.3720	2.7484	0.0877	2.8436	0.0079	80.9966
1808.16	0.3309	2.9667	0.0590	3.0449	0.0000	81.6100
1812.24	0.2786	2.9311	0.0543	2.9396	0.0000	79.5628
1816.33	0.1792	2.8424	0.0300	2.8380	0.0000	81.1127
1820.41	0.1854	2.8714	0.0362	2.8715	0.0000	82.8570
1824.49	0.1899	4.3927	0.0320	4.4052	0.0000	83.8202
1828.57	0.3011	4.3193	0.0378	4.3795	0.0000	93.2603
1832.65	0.0159	4.3079	0.0004	4.3031	0.0000	95.6109
1836.73	0.0352	4.1905	0.0011	4.1788	0.0000	91.2823
1840.82	0.4323	4.1157	0.0978	4.2780	0.0000	86.5397
1844.90	0.0518	3.8894	0.0080	3.8722	0.0000	102.2547
1848.98	0.0137	3.7255	0.0025	3.7165	0.0000	107.4812
1853.06	0.0140	3.6398	0.0016	3.6303	0.0000	105.2312
1857.14	0.0161	3.5832	0.0036	3.5671	0.0000	99.5303
1861.22	0.0283	3.6530	0.0047	3.6303	0.0000	89.9600
1865.31	0.1393	2.8148	0.0279	2.7399	0.0000	72.1889
1869.39	0.1710	2.8198	0.0042	2.6922	0.0000	71.2184
1873.47	0.1976	2.9649	0.0244	2.9396	0.0000	69.8134
1877.55	0.1489	2.9068	0.0121	2.9110	0.0081	78.9741
1881.63	0.1518	3.1915	0.0195	3.1663	0.0175	83.4721
1885.71	0.2405	4.9190	0.0366	5.0019	0.0138	86.9144
1889.80	0.1534	5.2058	0.0150	5.2216	0.0000	98.6605
1893.88	0.0072	5.1920	0.0004	5.1911	0.0000	102.9505
1897.96	0.0139	5.1398	0.0007	5.1306	0.0000	105.0020
1902.04	0.0179	4.9793	0.0011	4.9824	0.0000	107.3531
1906.12	0.0136	4.8052	0.0020	4.8101	0.0000	107.0463
1910.20	0.0130	4.5377	0.0004	4.5363	0.0000	109.2208
1914.29	0.0666	4.2697	0.0074	4.1788	0.0000	103.6106
1918.37	0.2205	4.5030	0.0348	4.3795	0.0000	96.8278
1922.45	0.2726	4.6627	0.0715	4.5575	0.1787	87.3087
1926.53	0.1023	4.1969	0.0092	4.1788	0.0000	96.5564
1930.61	0.0185	4.0490	0.0018	4.0581	0.0000	102.4414
1934.69	0.0065	4.0097	0.0008	4.0108	0.0000	103.2624
1938.78	0.0053	3.9642	0.0002	3.9640	0.0000	103.2780
1942.86	0.0072	3.9163	0.0001	3.9178	0.0000	104.0937
1946.94	0.0197	3.9257	0.0021	3.9409	0.0000	100.7743
1951.02	0.0872	4.2316	0.0091	4.2530	0.0000	85.7260
1955.10	0.0696	3.3748	0.0026	3.3443	0.0000	98.0632
1959.18	0.0290	3.1750	0.0035	3.1724	0.0000	106.5352
1963.27	0.0290	3.2009	0.0024	3.1911	0.0000	98.9622
1967.35	0.2421	3.2451	0.0256	3.1911	0.0000	82.0728
1971.43	0.4154	3.2214	0.0364	3.0632	0.0511	82.5123
1975.51	0.2486	4.2057	0.0287	4.2530	0.0000	97.2249
1979.59	0.1748	4.3539	0.0082	4.4311	0.0000	102.8135
1983.67	0.1281	3.6419	0.0075	3.5880	0.0000	96.4581
1987.76	0.0183	3.5727	0.0014	3.5671	0.0000	105.4209
1991.84	0.0175	3.5827	0.0013	3.5880	0.0000	106.8117
1995.92	0.3640	3.1320	0.0210	2.6922	0.0000	98.5692
2000.00	0.0153	2.6792	0.0006	2.6764	0.0000	108.1979
2004.08	0.0110	2.7274	0.0007	2.7239	0.0000	112.7075
2008.16	0.0234	2.6825	0.0012	2.6922	0.0000	108.8431
2012.24	0.0352	2.4795	0.0042	2.4800	0.0000	96.8271
2016.33	0.0446	2.6337	0.0045	2.5839	0.0000	102.7515
2020.41	0.0208	2.8274	0.0012	2.8214	0.0000	111.6648
2024.49	0.0132	2.9830	0.0011	2.9743	0.0000	111.0188
2028.57	0.0150	3.1338	0.0009	3.1354	0.0000	108.5256
2032.65	0.0248	3.1340	0.0016	3.1171	0.0000	96.3608
2036.73	0.1044	4.6327	0.0183	4.5363	0.0000	96.9475
2040.82	0.0428	4.2796	0.0040	4.2530	0.0000	100.3042
2044.90	0.0937	4.2812	0.0081	4.2281	0.0000	90.0197
2048.98	0.0783	4.2505	0.0104	4.2034	0.0000	98.4580
2053.06	0.0530	3.9008	0.0053	3.8949	0.0000	104.8389
2057.14	0.0771	3.6154	0.0031	3.5671	0.0000	104.5414
2061.22	0.0942	3.7984	0.0064	3.8047	0.0000	101.1418
2065.31	0.0146	3.7341	0.0017	3.7383	0.0000	104.9797
2069.39	0.0373	3.6328	0.0041	3.6517	0.0000	101.8145
2073.47	0.0467	3.6220	0.0048	3.6517	0.0000	93.1321
2077.55	0.3957	3.4702	0.0479	3.8047	0.0000	80.7204
2081.63	0.3405	3.4595	0.0995	3.7024	0.0540	82.2592
2085.71	0.2806	3.3701	0.0125	3.2732	0.0091	83.7349
2089.80	0.0572	3.2650	0.0063	3.2287	0.0000	91.7911
2093.88	0.1973	3.6050	0.0184	3.5671	0.0000	84.2621
2097.96	0.3862	4.8978	0.0536	5.0116	0.0000	92.0801
2102.04	0.2218	5.3382	0.0284	5.3769	0.0000	90.9707
2106.12	0.0174	5.3907	0.0022	5.3769	0.0000	94.1329
2110.20	0.0142	5.4031	0.0009	5.4085	0.0000	95.6597
2114.29	0.0176	5.3639	0.0008	5.3769	0.0000	94.6777
2118.37	0.0253	5.0615	0.0024	5.0708	0.0000	98.4894
2122.45	0.0758	4.7238	0.0032	4.7263	0.0000	98.8536
2126.53	0.0887	4.5320	0.0099	4.5097	0.0000	96.4777
2130.61	0.1893	5.2928	0.0241	5.2216	0.0000	84.6396
2134.69	0.1394	3.4219	0.0157	3.3837	0.0000	91.2930
2138.78	0.0194	3.4738	0.0036	3.4640	0.0000	101.9901
2142.86	0.0164	3.5197	0.0012	3.5049	0.0000	103.5520
2146.94	0.0063	3.5465	0.0001	3.5462	0.0000	106.3234
2151.02	0.0084	3.5632	0.0004	3.5671	0.0000	106.0321
2155.10	0.0055	3.5663	0.0002	3.5671	0.0000	106.4916
2159.18	0.0136	3.5485	0.0004	3.5462	0.0000	103.0190
2163.27	0.0474	3.7390	0.0073	3.7603	0.0000	96.7115
2167.35	0.5133	3.8049	0.0629	3.7165	0.0000	85.5882
2171.43	0.4019	4.4055	0.0681	4.4834	0.0000	87.3156
2175.51	0.4095	4.3998	0.0991	4.4834	0.0000	95.0207
2179.59	0.3068	4.2367	0.0477	4.2530	0.0000	96.3065
2183.67	0.2241	3.9018	0.0217	3.9409	0.0000	98.9770
2187.76	0.0972	3.4601	0.0016	3.5049	0.0000	100.1905
2191.84	0.1684	3.0631	0.0217	3.0094	0.0000	103.1490
2195.92	0.0682	2.6592	0.0065	2.6144	0.0000	111.2250
2200.00	0.0526	2.6581	0.0047	2.6764	0.0000	107.9034
2204.08	0.0847	2.6747	0.0060	2.6144	0.0000	99.9702
2208.16	0.0400	2.6917	0.0031	2.6922	0.0000	103.4399
2212.24	0.0213	2.8533	0.0029	2.8547	0.0000	111.7207
2216.33	0.0096	2.9841	0.0004	2.9918	0.0000	113.3325
2220.41	0.0105	3.0223	0.0004	3.0271	0.0000	113.2813
2224.49	0.0113	2.9964	0.0015	2.9918	0.0000	111.1277
2228.57	0.0834	2.8201	0.0019	2.7834	0.0386	98.5155
2232.65	0.4385	3.3747	0.0611	3.6804	0.0269	87.0826
2236.73	0.3296	2.9485	0.0273	2.8437	0.0316	76.6413
2240.82	0.1224	2.6634	0.0269	2.6660	0.0074	83.6356
2244.90	0.1191	2.7198	0.0176	2.6922	0.0000	82.0247
2248.98	0.0978	2.7126	0.0157	2.6608	0.0000	77.4477
2253.06	0.2121	2.7595	0.0291	2.6608	0.0000	73.1121
2257.14	0.0893	2.8414	0.0145	2.8049	0.0000	81.8827
2261.22	0.0484	2.9442	0.0136	2.9569	0.0000	86.2371
2265.31	0.0352	2.9872	0.0021	3.0094	0.0000	87.4127
2269.39	0.0570	2.9656	0.0026	2.9743	0.0000	84.8691
2273.47	0.0385	2.9881	0.0053	2.9918	0.0000	84.2221
2277.55	0.0743	2.9450	0.0064	2.9224	0.0000	77.5298
2281.63	0.2568	2.7781	0.0141	2.8441	0.0554	72.7453
2285.71	0.2202	2.9585	0.0431	3.1171	0.0000	73.8096
2289.80	0.1840	2.8282	0.0219	2.8603	0.0158	88.0038
2293.88	0.3342	2.5191	0.0183	2.3677	0.0776	92.5021
2297.96	0.0437	2.4149	0.0031	2.4225	0.0000	100.0811
2302.04	0.0777	2.3312	0.0054	2.2980	0.0000	95.1287
2306.12	0.1491	2.4019	0.0170	2.3664	0.0000	95.0149
2310.20	0.1321	2.5888	0.0050	2.5389	0.0000	94.9008
2314.29	0.6053	2.6872	0.2335	1.8901	0.0052	90.8729
2318.37	0.7186	2.6679	0.1005	1.9049	0.0000	91.4220
2322.45	0.6875	2.5365	0.1427	3.0271	0.0000	101.8255
2326.53	0.6731	2.6064	0.1406	3.0449	0.0000	104.0658
2330.61	0.6762	2.6504	0.1121	3.0808	0.0000	104.4379
2334.69	0.6905	2.7157	0.0711	3.1354	0.0000	104.9819
2338.78	0.6878	2.6780	0.0269	3.0989	0.0000	107.8290
2342.86	0.6622	2.5067	0.0263	2.9396	0.0000	111.4218
2346.94	0.6528	2.2216	0.1448	2.7560	0.0000	114.9590
2351.02	0.5988	2.1644	0.1365	2.6144	0.0000	109.5694
2355.10	0.5193	1.9518	0.1130	2.2980	0.0000	100.3555
2359.18	0.5985	2.2825	0.1337	2.6712	0.0148	105.8669
2363.27	0.6928	2.7123	0.1273	3.1295	0.0345	98.9955
2367.35	0.6530	2.1886	0.1365	2.0126	0.0441	91.6809
2371.43	0.4307	1.9261	0.0600	2.1170	0.0000	94.0138
2375.51	0.4826	1.8753	0.0595	2.0800	0.0000	96.8356
2379.59	0.6179	2.2549	0.0838	2.6922	0.0000	106.0988
2383.67	0.5768	2.3261	0.1875	2.7080	0.0000	112.6846
2387.76	0.5858	2.3083	0.2411	2.7399	0.0000	112.5704
2391.84	0.5964	2.3584	0.1642	2.7399	0.0000	112.0083
2395.92	0.5833	2.3993	0.1059	2.7399	0.0000	111.7167
2400.00	0.5640	2.4887	0.0843	2.7885	0.0000	111.6541
2404.08	0.5226	2.5074	0.0410	2.7560	0.0000	113.8158
2408.16	0.4454	2.4909	0.0275	2.6608	0.0000	111.9751
2412.24	0.3744	2.3010	0.0145	2.4368	0.0000	105.1772
2416.33	0.4253	2.5088	0.0175	2.7080	0.0000	108.6760
2420.41	0.4382	2.8584	0.0288	3.0094	0.0000	108.9698
2424.49	0.3324	3.0861	0.0267	3.1724	0.0000	108.4583
2428.57	0.3391	3.0680	0.0650	3.1354	0.0000	107.0446
2432.65	0.3325	2.6853	0.0862	2.7779	0.0382	108.2581
2436.73	0.3989	2.8213	0.0734	3.2668	0.0000	100.7637
2440.82	0.3338	3.4974	0.0649	3.6303	0.0000	96.6183
2444.90	0.2897	3.7709	0.0408	3.8270	0.0000	98.0450
2448.98	0.3347	3.9264	0.0498	4.0108	0.0000	94.1008
2453.06	0.5004	3.8360	0.1033	3.3827	0.4784	91.2094
2457.14	0.6258	2.7686	0.1293	2.4620	0.0795	97.5185
2461.22	0.0417	2.5907	0.0033	2.5943	0.0397	106.3047
2465.31	0.0889	2.9485	0.0163	2.9569	0.0000	108.2368
2469.39	0.1556	3.5825	0.0526	3.7311	0.0103	99.9456
2473.47	0.0252	3.7863	0.0069	3.8047	0.0000	101.9646
2477.55	0.0248	3.6471	0.0013	3.6517	0.0000	103.0105
2481.63	0.0155	3.4751	0.0007	3.4844	0.0000	102.4099
2485.71	0.0161	3.3593	0.0014	3.3639	0.0000	104.9028
2489.80	0.0102	3.2820	0.0012	3.2860	0.0000	108.2326
2493.88	0.0080	3.2518	0.0003	3.2477	0.0000	109.6233
2497.96	0.0093	3.2410	0.0001	3.2477	0.0000	109.8278
2502.04	0.0104	3.2351	0.0013	3.2287	0.0000	109.5548
2506.12	0.0112	3.2252	0.0004	3.2287	0.0000	108.8113
2510.20	0.0134	3.1998	0.0007	3.2098	0.0000	107.6768
2514.29	0.0211	3.1663	0.0012	3.1724	0.0000	100.3825
2518.37	0.1295	3.0656	0.0097	3.0874	0.0601	78.5228
2522.45	0.3848	3.0278	0.0258	2.7133	0.0075	72.7197
2526.53	0.3004	3.1737	0.0240	3.1294	0.0173	78.0933
2530.61	0.2853	3.2046	0.1043	3.3580	0.0645	74.1422
2534.69	0.1471	3.1507	0.0304	3.2353	0.0445	76.1313
2538.78	0.0652	3.2688	0.0005	3.2860	0.0000	78.9359
2542.86	0.0890	3.2112	0.0033	3.2226	0.0355	74.3948
2546.94	0.1937	3.1040	0.0482	3.2164	0.0442	72.8517
2551.02	0.3211	3.0262	0.0337	2.8750	0.1404	73.7669
2555.10	0.5946	3.4477	0.0921	3.2517	0.1588	76.7377
2559.18	0.7518	4.2890	0.1767	4.2781	0.0356	82.7394
2563.27	0.6000	4.3730	0.1896	4.4139	0.0122	95.5449
2567.35	0.5946	5.2465	0.1060	5.2216	0.0000	86.8267
2571.43	0.6157	6.0400	0.1457	6.2625	0.0521	86.3749
2575.51	1.1483	5.5087	0.6099	5.2710	0.8801	76.7319
2579.59	1.2640	4.9111	1.2133	4.5499	1.7326	73.9785
2583.67	1.1956	4.0602	1.1404	4.3090	1.9951	66.2766
2587.76	0.9670	3.6007	0.5502	4.6077	1.8692	67.3839
2591.84	1.4484	3.8471	0.6975	4.9818	1.9677	70.2436
2595.92	1.4333	3.9898	0.7086	5.0926	1.7420	73.3803
2600.00	1.3624	4.2282	0.7408	5.1082	1.5735	75.6386
2604.08	1.0904	4.4094	0.9714	5.8275	1.5761	75.8485
2608.16	0.8441	3.8632	1.0253	4.7138	1.3264	84.1031
2612.24	0.8153	3.3066	0.8711	4.0426	1.1456	97.0444
2616.33	0.6513	2.8069	0.7655	3.4915	0.9894	95.0425
2620.41	0.5117	2.3584	0.6524	2.9181	0.8300	96.8852
2624.49	0.4460	2.0817	0.5851	2.5500	0.7253	99.3392
2628.57	0.4036	1.8583	0.5182	2.2839	0.6449	97.5439
2632.65	0.3994	1.8060	0.4940	2.1793	0.6154	98.4787
2636.73	0.4145	1.6791	0.4186	2.0193	0.5702	95.5699
2640.82	0.4042	1.6259	0.3968	1.9156	0.5409	90.7859
2644.90	0.3957	1.6250	0.3908	1.8602	0.5253	90.4457
2648.98	0.3726	1.6077	0.3932	1.8065	0.5101	87.5802
2653.06	0.3265	1.5798	0.3942	1.7136	0.4839	89.8063
2657.14	0.2186	1.5384	0.4112	1.5879	0.4484	96.0300
2661.22	0.1758	1.4946	0.4061	1.5330	0.4329	99.4318
2665.31	0.1712	1.5050	0.2588	1.5648	0.2687	99.1727
2669.39	0.2624	1.3869	0.0905	1.2227	0.0268	97.7209
2673.47	0.3008	1.3435	0.1207	1.3400	0.0000	104.9466
2677.55	0.2790	1.4215	0.0948	1.4293	0.0000	109.1395
2681.63	0.3065	1.4806	0.1187	1.4892	0.0000	106.9318
2685.71	0.2721	1.4896	0.0918	1.5425	0.0000	106.9237
2689.80	0.3162	1.4938	0.1059	1.4979	0.0000	104.8456
2693.88	0.3767	1.5291	0.1400	1.4718	0.0000	104.6387
2697.96	0.3120	1.5158	0.1093	1.4377	0.0000	105.0184
2702.04	0.2980	1.4858	0.1016	1.4154	0.0078	105.4730
2706.12	0.3332	1.4726	0.1281	1.4072	0.0078	106.2891
2710.20	0.3318	1.4864	0.1178	1.3880	0.0000	104.1088
2714.29	0.2839	1.4442	0.0869	1.3799	0.0000	105.4532
2718.37	0.2967	1.4336	0.1066	1.3638	0.0000	110.2565
2722.45	0.2938	1.4020	0.1118	1.3167	0.0000	106.6749
2726.53	0.2821	1.4071	0.1009	1.3400	0.0000	111.9174
2730.61	0.2888	1.3644	0.1110	1.2786	0.0000	107.4518
2734.69	0.2656	1.3580	0.0931	1.2862	0.0000	108.4531
2738.78	0.2832	1.3509	0.1084	1.2712	0.0000	109.1781
2742.86	0.3279	1.3616	0.1777	1.2201	0.0000	104.7932
2746.94	0.3243	1.3709	0.1755	1.2417	0.0000	103.5778
2751.02	0.3346	1.3457	0.1832	1.2345	0.0000	103.5718
2755.10	0.3307	1.3311	0.1975	1.1642	0.0000	103.3680
2759.18	0.3281	1.2921	0.1953	1.1372	0.0000	103.7672
2763.27	0.3259	1.2877	0.2324	1.1108	0.0000	103.6145
2767.35	0.3201	1.3108	0.3067	1.0724	0.0000	101.6775
2771.43	0.2996	1.2852	0.3345	1.0476	0.0000	102.6946
2775.51	0.2943	1.2814	0.3404	1.0233	0.0000	98.7394
2779.59	0.2967	1.2187	0.2900	1.0114	0.0000	96.2669
2783.67	0.2948	1.2274	0.2894	1.0233	0.0000	95.0560
2787.76	0.3038	1.2480	0.2843	1.0415	0.0000	93.7356
2791.84	0.3100	1.2491	0.2386	1.0662	0.0000	91.7417
2795.92	0.3890	1.5495	0.3238	1.3040	0.0179	93.5776
2800.00	0.4187	1.7340	0.4430	1.5187	0.0209	80.3302
2804.08	0.2813	1.6068	0.4898	1.2888	0.0177	81.3363
2808.16	0.2713	1.5305	0.4625	1.2345	0.0103	79.7697
2812.24	0.3195	1.7169	0.5156	1.3827	0.0190	82.7435
2816.33	0.5886	1.8343	0.3482	2.1758	0.0240	75.7567
2820.41	0.4890	1.6940	0.2611	1.9693	0.0054	90.6104
2824.49	0.4405	1.6657	0.2326	1.9161	0.0000	100.8650
2828.57	0.3863	1.6861	0.1903	1.9049	0.0000	103.4943
2832.65	0.3959	1.7610	0.1782	1.9274	0.0000	104.0246
2836.73	0.3893	1.7841	0.1637	1.9274	0.0000	103.5157
2840.82	0.3631	1.7779	0.1252	1.8608	0.0000	104.4814
2844.90	0.2315	1.7560	0.0630	1.7652	0.0000	103.0458
2848.98	0.2427	1.6845	0.0711	1.6843	0.0000	106.4631
2853.06	0.2269	1.6379	0.0661	1.6452	0.0000	109.2398
2857.14	0.2550	1.6249	0.0711	1.6071	0.0000	111.4474
2861.22	0.2788	1.5963	0.0866	1.5699	0.0000	111.3784
2865.31	0.2753	1.5244	0.0874	1.4892	0.0000	106.9568
2869.39	0.2422	1.3941	0.0717	1.3479	0.0000	88.0139
2873.47	0.3910	1.6950	0.1767	1.4892	0.0000	74.5353
2877.55	0.3801	1.5963	0.1894	1.4377	0.0000	73.5408
2881.63	0.6066	2.0615	0.3286	1.9387	0.0000	73.4119
2885.71	0.6032	2.0666	0.4249	1.8865	0.0104	69.4960
2889.80	0.5604	1.9881	0.5024	1.8035	0.0050	75.0642
2893.88	0.4942	1.7592	0.3696	1.6647	0.0000	74.7587
2897.96	0.4935	1.7387	0.3232	1.6652	0.0418	73.7623
2902.04	0.4945	1.7642	0.3681	1.6071	0.0000	77.1294
2906.12	0.4697	1.7953	0.4537	1.5516	0.0000	78.9522
2910.20	0.4527	1.7224	0.4468	1.4718	0.0000	77.2440
2914.29	0.4257	1.7554	0.4994	1.5038	0.0083	68.8031
2918.37	0.4943	1.8171	0.4498	1.5216	0.0084	76.6484
2922.45	0.4966	1.8572	0.4324	1.5884	0.0000	74.7274
2926.53	0.4953	1.8607	0.4494	1.5245	0.0000	71.7351
2930.61	0.4178	1.8557	0.6394	1.4547	0.0000	67.0602
2934.69	0.2824	1.8762	0.6928	1.4894	0.0256	71.7145
2938.78	0.3334	2.2936	0.8452	1.8212	0.0050	62.8651
2942.86	0.4709	2.5670	0.5472	2.6064	0.1068	64.0495
2946.94	0.5825	2.6182	0.5191	3.0195	0.2426	68.0006
2951.02	0.5714	2.4815	0.3738	2.8352	0.1233	66.7773
2955.10	0.7188	2.6904	0.0900	2.9512	0.0163	69.0264
2959.18	1.0755	2.7529	0.0133	4.3881	0.0121	85.7251
2963.27	1.0039	2.5933	0.1383	3.9952	0.0111	97.5972
2967.35	0.9867	2.6333	0.2907	3.8949	0.0000	104.8744
2971.43	0.9780	2.8254	0.3757	3.9409	0.0000	106.9580
2975.51	0.9602	2.9616	0.4299	3.9874	0.0000	106.1318
2979.59	0.9458	3.0513	0.4584	4.0108	0.0000	103.7432
2983.67	0.9148	2.9949	0.4050	3.8495	0.0000	105.8282
2987.76	0.8286	2.8512	0.3879	3.5671	0.0000	105.4010
2991.84	0.7417	2.6807	0.4492	3.3837	0.0000	109.5084
2995.92	0.6686	2.6431	0.4732	3.2860	0.0000	112.9244
3000.00	0.6395	2.5844	0.4429	3.1724	0.0000	114.2326
3004.08	0.5649	2.4596	0.3984	2.9396	0.0000	109.6556
3008.16	0.4143	2.1835	0.3714	2.5240	0.0000	101.9660
3012.24	0.7800	2.3344	0.3686	2.6361	0.8296	91.8114
3016.33	0.6797	2.5753	0.1936	3.1682	0.1129	89.3221
3020.41	0.8665	2.8573	0.1207	3.6150	0.4283	74.9303
3024.49	0.9730	3.2099	0.2233	3.9640	0.0000	69.7876
3028.57	0.8545	3.3969	0.2008	3.9178	0.0000	77.1655
3032.65	0.5981	3.3595	0.1489	3.6091	0.0000	76.7961
3036.73	0.5130	3.2677	0.0564	3.4036	0.0000	81.0962
3040.82	0.4787	3.1777	0.0699	3.3249	0.0276	76.6147
3044.90	0.3746	3.0974	0.0623	3.1724	0.0000	80.4916
3048.98	0.2712	2.9582	0.0082	2.9918	0.0000	79.9409
3053.06	0.5217	2.9036	0.0925	2.5772	0.1295	72.0428
3057.14	0.3385	3.0273	0.0511	2.9346	0.0654	75.7905
3061.22	0.2732	3.1237	0.0427	3.0762	0.0945	74.1315
3065.31	0.1992	2.9508	0.0180	2.9522	0.0808	77.0575
3069.39	0.3048	3.2194	0.0280	3.3837	0.0000	73.6293
3073.47	0.2193	3.3420	0.0390	3.3837	0.0000	85.4887
3077.55	0.1357	3.3237	0.0155	3.3247	0.0000	93.0075
3081.63	0.1124	3.3431	0.0117	3.3443	0.0000	97.5623
3085.71	0.0152	3.3187	0.0020	3.3247	0.0000	100.1216
3089.80	0.0105	3.3289	0.0003	3.3247	0.0000	103.5682
3093.88	0.0099	3.3360	0.0012	3.3443	0.0000	104.2886
3097.96	0.0128	3.3516	0.0010	3.3639	0.0000	104.2145
3102.04	0.0138	3.3365	0.0009	3.3443	0.0000	105.4204
3106.12	0.0127	3.3321	0.0002	3.3443	0.0000	106.9709
3110.20	0.0187	3.3184	0.0002	3.3247	0.0000	106.7608
3114.29	0.0204	3.3395	0.0001	3.3247	0.0000	106.6423
3118.37	0.0233	3.3346	0.0020	3.3443	0.0000	106.2666
3122.45	0.0166	3.3151	0.0029	3.3247	0.0000	108.5877
3126.53	0.0154	3.3126	0.0014	3.3053	0.0000	108.4620
3130.61	0.0127	3.3082	0.0019	3.3053	0.0000	108.0201
3134.69	0.0214	3.3374	0.0029	3.3443	0.0000	106.6259
3138.78	0.0105	3.3016	0.0013	3.3053	0.0000	109.8886
3142.86	0.0052	3.3261	0.0006	3.3247	0.0000	110.0054
3146.94	0.0016	3.3442	0.0001	3.3443	0.0000	110.0972
3151.02	0.0065	3.3615	0.0003	3.3639	0.0000	109.0442
3155.10	0.0046	3.3630	0.0002	3.3639	0.0000	110.2099
3159.18	0.0016	3.3641	0.0001	3.3639	0.0000	110.5578
3163.27	0.0049	3.3455	0.0004	3.3443	0.0000	110.4414
3167.35	0.0111	3.3985	0.0004	3.4036	0.0000	106.3151
3171.43	0.0082	3.4005	0.0006	3.4036	0.0000	106.7297
3175.51	0.0118	3.3772	0.0016	3.3837	0.0000	106.7803
3179.59	0.0078	3.3856	0.0008	3.3837	0.0000	106.5724
3183.67	0.0338	3.3370	0.0022	3.3053	0.0000	102.8996
3187.76	0.0404	3.0322	0.0057	3.0094	0.0000	106.3872
3191.84	0.2691	2.9500	0.0405	3.2668	0.0000	100.7292
3195.92	0.1549	2.7805	0.0193	2.8715	0.0000	97.5170
3200.00	0.0946	2.7562	0.0108	2.7453	0.0076	98.6879
3204.08	0.0526	2.8646	0.0050	2.8715	0.0000	100.7061
3208.16	0.1560	3.0775	0.0164	3.0989	0.0000	100.8254
3212.24	0.3407	3.0106	0.0334	2.5191	0.0070	100.1111
3216.33	0.0800	2.8427	0.0122	2.8214	0.0000	104.4902
3220.41	0.0231	3.1041	0.0025	3.1171	0.0000	107.7694
3224.49	0.0372	3.2754	0.0026	3.2668	0.0000	104.8271
3228.57	0.0266	3.5147	0.0014	3.5049	0.0000	100.0230
3232.65	0.0254	3.6258	0.0015	3.6303	0.0000	99.9116
3236.73	0.0195	3.7461	0.0032	3.7603	0.0000	103.2391
3240.82	0.0112	3.7660	0.0006	3.7603	0.0000	104.7027
3244.90	0.0108	3.7882	0.0003	3.7824	0.0000	104.5063
3248.98	0.0105	3.8046	0.0007	3.8047	0.0000	103.6046
3253.06	0.0057	3.7604	0.0002	3.7603	0.0000	103.1666
3257.14	0.0151	3.7561	0.0008	3.7603	0.0000	97.5169
3261.22	0.0637	3.6820	0.0075	3.6517	0.0000	95.1678
3265.31	0.0971	3.0096	0.0054	2.9224	0.0000	104.9383
3269.39	0.0807	2.5948	0.0120	2.5991	0.0000	105.9168
3273.47	0.1029	2.6747	0.0057	2.6402	0.0291	102.8725
3277.55	0.1030	2.7788	0.0068	2.8159	0.0078	98.2009
3281.63	0.1205	2.6401	0.0116	2.6298	0.0000	90.4714
3285.71	0.4129	3.3584	0.1253	3.7824	0.0000	73.6809
3289.80	0.3099	3.6426	0.0563	3.7824	0.0000	76.0720
3293.88	0.2666	3.6266	0.0506	3.5671	0.0000	73.4760
3297.96	0.3072	3.5959	0.0262	3.7165	0.0000	73.8222
3302.04	0.3338	3.5466	0.1004	3.7829	0.0624	70.5281
3306.12	0.3829	3.4323	0.0281	3.6807	0.0506	73.1105
3310.20	0.2687	2.8673	0.0082	2.8000	0.0538	78.0960
3314.29	0.2646	2.6096	0.0321	2.4511	0.0000	80.0120
3318.37	0.3694	3.0080	0.0469	2.9918	0.0000	76.8717
3322.45	0.5063	2.9391	0.0293	2.6250	0.2312	82.0137
3326.53	0.2692	2.7891	0.0303	2.6298	0.0000	94.8572
3330.61	0.3049	3.1260	0.0468	3.1308	0.0962	95.4605
3334.69	0.7881	3.2950	0.3055	3.7093	0.0205	94.9775
3338.78	0.4615	2.6633	0.2899	2.8547	0.0000	98.7420
3342.86	0.5153	2.9562	0.3559	3.1911	0.0000	102.9567
3346.94	0.5356	3.2558	0.3181	3.4844	0.0000	98.0976
3351.02	0.5357	3.4072	0.2891	3.6091	0.0000	102.3206
3355.10	0.5553	3.4793	0.3025	3.6948	0.0000	104.9477
3359.18	0.5321	3.5813	0.2477	3.7603	0.0000	104.0984
3363.27	0.5343	3.5899	0.2470	3.7603	0.0000	104.5843
3367.35	0.4898	3.6248	0.2039	3.7603	0.0000	103.1939
3371.43	0.4617	3.6460	0.1536	3.7603	0.0000	101.2615
3375.51	0.4035	3.6386	0.1255	3.7383	0.0000	96.8141
3379.59	0.2611	3.8416	0.0322	3.8949	0.0000	88.8486
3383.67	0.2439	3.2047	0.0119	3.0808	0.0000	97.9500
3387.76	0.1271	2.6012	0.0137	2.5439	0.0140	106.9047
3391.84	0.2481	2.7106	0.0075	2.6660	0.1694	98.3453
3395.92	0.2224	2.4731	0.0264	2.5241	0.0210	100.5911
3400.00	0.1800	2.4032	0.0183	2.4084	0.0000	98.6500
3404.08	0.0822	2.6376	0.0032	2.6452	0.0000	97.3021
3408.16	0.2701	2.6887	0.0340	2.6452	0.0000	82.9156
3412.24	0.1627	3.7567	0.0030	3.7603	0.0000	76.4265
3416.33	0.2375	3.6450	0.0263	3.6732	0.0000	71.7813
3420.41	0.1526	3.7347	0.0143	3.7383	0.0000	70.1693
3424.49	0.5354	3.1847	0.0191	2.6922	0.0224	67.7047
3428.57	0.5093	3.2337	0.0612	3.6091	0.0000	73.9763
3432.65	0.3238	2.6836	0.0449	2.5839	0.0000	79.9217
3436.73	0.2469	2.7330	0.0466	2.7133	0.0075	74.9772
3440.82	0.2620	2.6067	0.0050	2.5738	0.0071	73.8065
3444.90	0.1902	2.6507	0.0223	2.5193	0.0350	71.9866
3448.98	0.1361	2.6382	0.0120	2.6195	0.0145	75.6908
3453.06	0.3133	2.5297	0.0201	2.5143	0.0279	70.4874
3457.14	0.2928	2.6898	0.0386	2.5093	0.0000	71.3516
3461.22	0.0471	2.7279	0.0094	2.7560	0.0000	88.2268
3465.31	0.0214	2.6390	0.0003	2.6608	0.0000	95.7049
3469.39	0.0096	2.5351	0.0004	2.5389	0.0000	100.9493
3473.47	0.0108	2.4466	0.0011	2.4511	0.0000	101.9199
3477.55	0.0080	2.3883	0.0007	2.3943	0.0000	103.4157
3481.63	0.0075	2.3099	0.0003	2.3115	0.0000	104.2655
3485.71	0.0042	2.2330	0.0003	2.2316	0.0000	105.9878
3489.80	0.0072	2.1649	0.0002	2.1672	0.0000	104.3910
3493.88	0.0121	2.0880	0.0014	2.0800	0.0000	103.2356
3497.96	0.0136	2.0431	0.0011	2.0318	0.0000	102.8122
3502.04	0.0078	1.9836	0.0015	1.9847	0.0000	101.1934
3506.12	0.0330	1.9467	0.0015	1.9387	0.0000	95.1905
3510.20	0.0271	1.9493	0.0030	1.9387	0.0000	95.1804
3514.29	0.0465	1.9075	0.0047	1.8827	0.0000	91.6294
3518.37	0.0242	1.8272	0.0015	1.8177	0.0000	87.5892
3522.45	0.2504	1.9338	0.0138	1.7755	0.0000	81.6098
3526.53	0.3613	2.4112	0.0238	2.3768	0.0730	84.6336
3530.61	0.3899	3.1898	0.0579	3.4037	0.0163	86.6302
3534.69	0.4031	3.3822	0.1680	3.5049	0.0000	89.1088
3538.78	0.4461	3.2937	0.2281	3.4640	0.0000	93.2956
3542.86	0.4537	3.1983	0.2536	3.3837	0.0000	97.7799
3546.94	0.4653	3.0918	0.3027	3.3053	0.0000	102.3207
3551.02	0.4510	3.0705	0.2746	3.2668	0.0000	103.8843
3555.10	0.4334	3.0507	0.2420	3.2287	0.0000	105.3605
3559.18	0.4290	3.1443	0.2198	3.3053	0.0000	105.2651
3563.27	0.4136	3.3339	0.1795	3.4844	0.0000	98.6869
3567.35	0.4031	3.5226	0.1545	3.6517	0.0000	94.8157
3571.43	0.6795	3.5380	0.1413	2.3251	0.0000	87.4760
3575.51	0.3604	2.4145	0.0669	2.3123	0.0580	94.1682
3579.59	0.0319	2.4174	0.0043	2.4084	0.0000	100.6464
3583.67	0.0149	2.5437	0.0019	2.5389	0.0000	108.2423
3587.76	0.0108	2.6724	0.0019	2.6764	0.0000	113.4811
3591.84	0.0126	2.7981	0.0008	2.8049	0.0000	112.7361
3595.92	0.0146	2.8055	0.0014	2.8049	0.0000	110.6609
3600.00	0.1046	2.7792	0.0106	2.7399	0.0000	104.8471
3604.08	0.0379	3.1311	0.0096	3.1539	0.0000	107.2519
3608.16	0.0110	3.0637	0.0009	3.0628	0.0000	112.9553
3612.24	0.0095	3.0004	0.0006	2.9918	0.0000	111.7424
3616.33	0.0456	2.8811	0.0037	2.9053	0.0000	106.5505
3620.41	0.0469	3.0760	0.0024	3.0989	0.0000	108.7424
3624.49	0.0106	2.9548	0.0007	2.9569	0.0000	115.2297
3628.57	0.0071	2.8855	0.0002	2.8884	0.0000	114.5854
3632.65	0.0043	2.8048	0.0001	2.8049	0.0000	115.8079
3636.73	0.0068	2.7739	0.0004	2.7722	0.0000	114.8534
3640.82	0.0043	2.7090	0.0004	2.7080	0.0000	115.7053
3644.90	0.0077	2.6572	0.0005	2.6608	0.0000	114.7481
3648.98	0.0085	2.6171	0.0008	2.6144	0.0000	114.4423
3653.06	0.0086	2.5506	0.0001	2.5538	0.0000	114.0911
3657.14	0.0093	2.4817	0.0009	2.4800	0.0000	113.5593
3661.22	0.0223	2.4188	0.0018	2.4225	0.0000	110.1104
3665.31	0.0577	2.3447	0.0074	2.3251	0.0000	108.7206
3669.39	0.0181	2.2857	0.0013	2.2846	0.0000	108.3506
3673.47	0.0205	2.2845	0.0014	2.2846	0.0000	108.7116
3677.55	0.0206	2.3322	0.0018	2.3251	0.0000	108.2725
3681.63	0.0193	2.4238	0.0011	2.4225	0.0000	108.0030
3685.71	0.0175	2.5062	0.0011	2.4946	0.0000	108.2054
3689.80	0.0157	2.5875	0.0007	2.5839	0.0000	109.1182
3693.88	0.0135	2.6858	0.0012	2.6922	0.0000	109.4065
3697.96	0.0172	2.7484	0.0017	2.7399	0.0000	108.3641
3702.04	0.0149	2.8120	0.0005	2.8049	0.0000	109.1253
3706.12	0.0133	2.8889	0.0006	2.8884	0.0000	109.4217
3710.20	0.0114	2.9397	0.0003	2.9396	0.0000	110.8500
3714.29	0.0071	3.0065	0.0005	3.0094	0.0000	112.8637
3718.37	0.0128	3.0386	0.0012	3.0449	0.0000	112.3390
3722.45	0.0117	2.9730	0.0015	2.9743	0.0000	113.8037
3726.53	0.0128	2.7577	0.0005	2.7722	0.0000	112.3135
3730.61	0.0341	2.6077	0.0024	2.6144	0.0000	108.4444
3734.69	0.0962	3.1314	0.0085	3.1724	0.0000	103.7000
3738.78	0.0437	2.9212	0.0019	2.9396	0.0000	108.2900
3742.86	0.0177	2.7296	0.0030	2.7239	0.0000	109.7752
3746.94	0.0239	2.6911	0.0014	2.6922	0.0000	106.5728
3751.02	0.0511	2.7003	0.0041	2.6764	0.0000	89.6262
3755.10	0.0852	2.8909	0.0132	2.9743	0.0000	85.4559
3759.18	0.1186	2.8523	0.0174	2.8380	0.0000	82.7885
3763.27	0.0597	3.0012	0.0074	3.0271	0.0000	85.4365
3767.35	0.0364	2.9495	0.0041	2.9569	0.0000	87.3758
3771.43	0.0413	2.8371	0.0058	2.8380	0.0000	85.9969
3775.51	0.1070	2.6962	0.0133	2.7239	0.0000	81.6182
3779.59	0.1187	2.9392	0.0023	2.9456	0.0405	82.2539
3783.67	0.0948	2.9017	0.0117	2.8547	0.0000	86.5413
3787.76	0.7392	4.0627	0.1276	4.4834	0.0000	88.6749
3791.84	0.6198	4.2451	0.1072	3.9952	0.0220	91.1086
3795.92	0.2662	4.2612	0.0302	4.2034	0.0000	100.0074
3800.00	0.7005	4.8908	0.1287	5.3769	0.0000	96.7723
3804.08	0.7801	4.7231	0.0535	5.3769	0.0000	96.7532
3808.16	0.7173	4.8540	0.1960	5.2216	0.0000	95.0894
3812.24	0.5565	4.9887	0.1485	5.1607	0.0000	94.9824
3816.33	0.5171	4.9896	0.1330	5.0708	0.0000	94.8094
3820.41	0.4370	4.4154	0.0693	4.5629	0.0000	92.7692
3824.49	0.3741	5.1981	0.0583	5.3455	0.0000	94.8848
3828.57	0.2917	4.8019	0.0165	4.8955	0.0000	101.3804
3832.65	0.6070	4.5696	0.0866	5.1607	0.0000	95.7716
3836.73	1.0189	4.6306	0.2196	5.1607	0.0000	96.2980
3840.82	1.1223	4.5957	0.3552	5.2523	0.0000	93.3018
3844.90	0.9566	3.4423	0.2808	3.7824	0.0000	92.5974
3848.98	0.9830	4.0859	0.3201	4.6167	0.0000	89.6284
3853.06	1.1404	5.3797	0.2744	5.8419	0.2456	80.9334
3857.14	0.7308	4.2291	0.1699	4.3967	0.0321	95.8004
3861.22	0.6122	3.6008	0.1778	3.8196	0.0105	99.0464
3865.31	0.6691	3.6148	0.2743	3.9178	0.0000	100.3901
3869.39	0.6948	3.7013	0.3172	4.0344	0.0000	98.7296
3873.47	0.6696	3.8053	0.2805	4.1060	0.0000	97.9616
3877.55	0.6937	3.7913	0.3320	4.0820	0.0000	97.0773
3881.63	1.0103	4.7653	0.2631	5.5694	0.0000	94.6032
3885.71	0.9615	4.6870	0.0513	5.4403	0.0000	93.6115
3889.80	0.8164	4.6992	0.1679	5.2216	0.0000	91.0113
3893.88	0.6851	4.6942	0.3180	4.9824	0.0000	95.6102
3897.96	0.6616	4.5156	0.3240	4.7820	0.0000	93.9746
3902.04	0.5860	4.2261	0.3159	4.4572	0.0000	98.5634
3906.12	0.5103	4.0396	0.2261	4.1788	0.0000	100.5142
3910.20	0.4308	3.8585	0.1573	3.9640	0.0000	103.0680
3914.29	0.4138	3.7269	0.1513	3.8270	0.0000	104.7752
3918.37	0.3360	3.6596	0.0971	3.7165	0.0000	107.1631
3922.45	0.2913	3.5993	0.0713	3.6517	0.0000	106.3424
3926.53	0.2929	3.4990	0.0751	3.5462	0.0000	105.1121
3930.61	0.3038	3.4206	0.0839	3.4844	0.0000	102.6341
3934.69	0.2517	3.3741	0.0561	3.4236	0.0000	101.8726
3938.78	0.2373	3.3479	0.0497	3.3837	0.0000	100.9960
3942.86	0.2076	3.2759	0.0401	3.3053	0.0000	99.5029
3946.94	0.1423	3.1836	0.0196	3.1911	0.0000	95.8614
3951.02	0.1697	3.1085	0.0099	3.1171	0.0000	77.2686
3955.10	0.4632	3.5395	0.0714	3.8495	0.0000	65.8676
3959.18	0.4750	3.7074	0.1020	3.8949	0.0000	76.2098
3963.27	0.4809	3.6229	0.1100	3.7899	0.0209	73.3978
3967.35	0.3234	3.7008	0.0651	3.7457	0.0104	74.3726
3971.43	0.2727	3.5393	0.0617	3.5880	0.0000	78.0652
3975.51	0.2506	3.4384	0.0519	3.4844	0.0000	74.7464
3979.59	0.2169	3.4831	0.0275	3.4844	0.0000	76.5408
3983.67	0.1916	3.3716	0.0218	3.3443	0.0000	73.3040
3987.76	0.1714	3.1014	0.0253	3.1354	0.0000	81.2830
3991.84	0.1534	3.3473	0.0171	3.3443	0.0000	88.3877
3995.92	0.1034	3.4731	0.0093	3.4640	0.0000	89.8791
4000.00	0.0457	3.5606	0.0012	3.5462	0.0000	94.6789
4004.08	0.0201	3.7258	0.0016	3.7165	0.0000	93.9605
4008.16	0.0354	3.2498	0.0020	3.2477	0.0000	102.0905
4012.24	0.0627	3.3293	0.0033	3.3247	0.0000	103.6116
4016.33	0.0276	3.6783	0.0050	3.6948	0.0000	102.8720
4020.41	0.0243	3.8887	0.0006	3.8949	0.0000	102.1803
4024.49	0.0062	3.9416	0.0003	3.9409	0.0000	103.6361
4028.57	0.0101	3.9698	0.0003	3.9640	0.0000	103.0037
4032.65	0.0213	4.0565	0.0024	4.0581	0.0000	100.1400
4036.73	0.0379	4.1391	0.0052	4.1301	0.0000	99.2935
4040.82	0.0539	4.2485	0.0012	4.2780	0.0000	99.1507
4044.90	0.0813	4.2804	0.0030	4.3031	0.0000	94.0033
4048.98	0.0440	4.3512	0.0038	4.3795	0.0000	100.7265
4053.06	0.0320	4.4064	0.0039	4.4311	0.0000	98.1487
4057.14	0.0478	4.2745	0.0024	4.2780	0.0000	99.9652
4061.22	0.0129	4.3519	0.0002	4.3539	0.0000	102.6849
4065.31	0.0103	4.2780	0.0006	4.2780	0.0000	102.7515
4069.39	0.0049	4.2770	0.0000	4.2780	0.0000	103.9514
4073.47	0.0096	4.2737	0.0008	4.2780	0.0000	103.9375
4077.55	0.0023	4.2283	0.0002	4.2281	0.0000	106.2320
4081.63	0.0010	4.1788	0.0000	4.1788	0.0000	106.5529
4085.71	0.0095	4.1270	0.0007	4.1301	0.0000	105.1349
4089.80	0.0186	4.0493	0.0013	4.0581	0.0000	104.7363
4093.88	0.0234	3.9817	0.0005	3.9874	0.0000	104.4251
4097.96	0.0129	3.9248	0.0021	3.9178	0.0000	106.8771
4102.04	0.0191	3.8686	0.0014	3.8722	0.0000	106.7669
4106.12	0.0214	3.8194	0.0032	3.8270	0.0000	107.1946
4110.20	0.0156	3.7472	0.0025	3.7603	0.0000	109.3128
4114.29	0.0181	3.6202	0.0018	3.6091	0.0000	109.0265
4118.37	0.0397	3.6700	0.0080	3.6517	0.0000	106.5593
4122.45	0.0301	3.4758	0.0005	3.4640	0.0000	106.6854
4126.53	0.0621	3.4422	0.0087	3.4236	0.0000	103.3581
4130.61	0.0300	3.3451	0.0059	3.3443	0.0000	106.1202
4134.69	0.0290	3.2674	0.0014	3.2668	0.0000	106.4755
4138.78	0.0333	3.2237	0.0043	3.2098	0.0000	106.7749
4142.86	0.0283	3.1894	0.0027	3.2098	0.0000	107.8958
4146.94	0.0441	3.1599	0.0013	3.2098	0.0000	107.4142
4151.02	0.0573	3.1855	0.0066	3.2287	0.0000	105.9535
4155.10	0.0220	3.1180	0.0020	3.1171	0.0000	108.9089
4159.18	0.0268	3.0206	0.0006	3.0271	0.0000	107.7992
4163.27	0.0962	2.9564	0.0082	2.9396	0.0000	103.5565
4167.35	0.0706	2.9849	0.0049	2.9918	0.0000	101.6018
4171.43	0.1712	2.9394	0.0150	2.9224	0.0000	97.4193
4175.51	0.2308	2.9945	0.0172	2.8884	0.0000	93.8098
4179.59	0.2080	2.6743	0.0148	2.6144	0.0000	94.0279
4183.67	0.1157	2.5334	0.0042	2.5240	0.0000	91.9789
4187.76	0.2287	2.6134	0.0336	2.5688	0.0000	87.6444
4191.84	0.1040	2.6224	0.0008	2.5839	0.0000	84.3252
4195.92	0.0765	3.1799	0.0103	3.1724	0.0000	78.4768
4200.00	0.1187	3.1031	0.0158	3.0449	0.0000	75.3029
4204.08	0.1030	3.0190	0.0181	2.9743	0.0000	75.5130
4208.16	0.1557	3.1197	0.0079	3.0989	0.0000	74.5818
4212.24	0.1088	3.0943	0.0154	3.0628	0.0000	78.0944
4216.33	0.0771	3.1013	0.0029	3.1171	0.0000	74.2029
4220.41	0.1368	3.0334	0.0112	3.0271	0.0000	70.5946
4224.49	0.2451	2.9507	0.0274	2.9627	0.0082	73.6310
4228.57	0.2030	2.9276	0.0226	2.8050	0.0233	72.7634
4232.65	0.2756	2.9360	0.0522	2.8563	0.0936	66.5570
4236.73	0.2814	3.0269	0.0272	2.9186	0.1035	70.0552
4240.82	0.1980	3.0204	0.0078	2.9743	0.0000	72.1823
4244.90	0.1863	2.9945	0.0356	2.9225	0.0243	70.4944
4248.98	0.2063	3.0105	0.0174	2.8380	0.0000	67.4476
4253.06	0.8755	3.9542	0.1295	4.2247	0.2031	74.5288
4257.14	0.6781	3.6825	0.1439	3.9563	0.0109	81.2424
4261.22	0.4333	3.0165	0.0696	3.0153	0.0221	92.2782
4265.31	0.3410	2.6516	0.0683	2.7239	0.0000	103.8187
4269.39	0.3132	2.6073	0.0383	2.5389	0.0000	100.4344
4273.47	0.2580	2.1386	0.0582	2.1170	0.0000	101.4257
4277.55	0.2620	2.3944	0.0614	2.4084	0.0000	103.9024
4281.63	0.2106	2.0257	0.0118	2.0161	0.0222	95.6797
4285.71	0.2007	2.2961	0.0189	2.2405	0.0224	98.5142
4289.80	0.1837	2.2903	0.0218	2.2409	0.0499	96.2510
4293.88	0.2321	2.4238	0.0288	2.3466	0.2895	94.7625
4297.96	0.1582	2.5158	0.0221	2.5071	0.1990	91.4119
4302.04	0.1238	2.6299	0.0052	2.6514	0.0740	90.2271
4306.12	0.1306	2.5440	0.0208	2.5644	0.0571	86.0700
4310.20	0.1290	2.4114	0.0090	2.3251	0.0000	81.5941
4314.29	0.1287	2.5203	0.0328	2.4899	0.0274	78.3153
4318.37	0.1970	2.3289	0.0558	2.3026	0.0229	71.9296
4322.45	0.1399	2.3965	0.0181	2.4417	0.0271	76.8130
4326.53	0.1404	2.6038	0.0170	2.5839	0.0000	73.5450
4330.61	0.1981	2.3854	0.0056	2.2580	0.0000	73.5016
4334.69	0.0854	2.3166	0.0105	2.3342	0.0064	73.4709
4338.78	0.2537	2.6678	0.0136	2.6871	0.0296	70.5799
4342.86	0.2886	2.3764	0.0397	2.3865	0.0868	65.9829
4346.94	0.1857	2.2488	0.0294	2.2316	0.0000	70.7908
4351.02	0.2361	2.4156	0.0062	2.3664	0.0000	68.5526
4355.10	0.1658	2.3982	0.0257	2.4559	0.0135	67.1345
4359.18	0.2545	2.6544	0.0427	2.8326	0.0312	68.2325
4363.27	0.1832	2.3950	0.0156	2.4655	0.0000	69.3904
4367.35	0.1848	2.2727	0.0260	2.2980	0.0000	65.7375
4371.43	0.1748	2.2267	0.0375	2.2523	0.1204	64.5240
4375.51	0.2574	2.2945	0.0436	2.1670	0.1853	64.5472
4379.59	0.3889	2.3709	0.1056	2.1480	0.1643	63.1538
4383.67	0.3419	2.4994	0.0432	2.3119	0.0386	63.2027
4387.76	0.4280	2.2184	0.0658	2.1438	0.0901	64.9780
4391.84	0.2191	2.3685	0.0264	2.3641	0.1028	62.0448
4395.92	0.3271	2.4696	0.0583	2.4105	0.0991	64.0600
4400.00	0.4135	2.3467	0.0809	2.1994	0.1016	63.5418
4404.08	0.4779	2.2494	0.0884	2.0846	0.0451	64.9073
4408.16	0.5616	2.7279	0.2347	2.3550	0.3024	59.7131
4412.24	0.7402	3.2706	0.4451	3.0895	0.2363	59.0884
4416.33	1.3995	3.3238	0.3876	2.2591	0.3293	62.0200
4420.41	0.8194	2.5249	0.2114	2.2284	0.2128	66.3802
4424.49	0.8650	2.6548	0.2907	2.0565	0.1857	63.0623
4428.57	0.5410	2.4317	0.1511	2.4016	0.1109	63.5753
4432.65	0.3032	2.3203	0.1075	2.4368	0.0000	65.4399
4436.73	0.1984	2.6309	0.0841	2.5639	0.0282	59.6418
4440.82	0.2946	2.6083	0.0682	2.5539	0.0212	65.7690
4444.90	0.3118	2.3987	0.0188	2.2355	0.1323	63.4507
4448.98	0.5777	2.2855	0.1721	1.7833	0.1263	62.5235
4453.06	0.6395	2.5200	0.1257	1.9480	0.4821	61.8767
4457.14	0.6914	2.5405	0.1727	2.5425	0.2686	63.9793
4461.22	0.4978	2.2797	0.1333	2.1294	0.0000	64.4584
4465.31	0.4934	2.3172	0.1009	2.1281	0.1096	64.3233
4469.39	0.2929	2.0107	0.0322	1.9964	0.0000	64.1266
4473.47	0.4117	1.9673	0.1783	2.0846	0.0457	63.4186
4477.55	0.4418	2.0913	0.2012	2.1521	0.1632	64.0210
4481.63	0.4703	2.5579	0.2801	2.8659	0.0079	62.6915
4485.71	0.4849	2.4636	0.0971	2.2804	0.0317	63.8126
4489.80	0.5159	2.2064	0.0437	2.1735	0.1639	65.7516
4493.88	0.3651	2.4276	0.0498	2.3758	0.0262	64.4447
4497.96	0.2681	2.2673	0.0306	2.2580	0.0000	66.3930
4502.04	0.3449	2.1558	0.0717	1.9964	0.0000	65.6775
4506.12	0.2744	2.1365	0.0926	2.0438	0.0000	66.1412
4510.20	0.2682	2.2561	0.0368	2.2634	0.0681	65.7575
4514.29	0.3900	2.7368	0.1022	2.5343	0.2236	61.4113
4518.37	0.3833	2.5291	0.0589	2.5790	0.1601	64.6871
4522.45	0.5773	2.4962	0.1522	2.4705	0.0298	61.7999
4526.53	0.4800	2.4702	0.0666	2.6976	0.0299	65.9062
4530.61	0.5886	2.2190	0.0843	2.1462	0.0238	64.3968
4534.69	0.4425	2.4539	0.0550	2.5042	0.1554	65.5087
4538.78	0.3597	2.5171	0.0425	2.5690	0.1614	63.9181
4542.86	0.4383	2.2878	0.0971	2.0084	0.1274	62.9635
4546.94	0.6078	2.6767	0.1026	2.5805	0.0915	63.0115
4551.02	0.4004	2.4280	0.0828	2.3207	0.0256	64.7868
4555.10	0.2891	2.2531	0.0351	2.1842	0.0120	62.0340
4559.18	0.4186	2.5139	0.0845	2.2921	0.2658	60.9857
4563.27	0.5551	2.3871	0.1310	1.9965	0.0191	62.6269
4567.35	0.3521	2.1575	0.0393	2.1151	0.0973	63.7885
4571.43	0.2821	2.6138	0.0490	2.4511	0.0000	64.4338
4575.51	0.3102	2.2960	0.0543	2.2625	0.0251	62.5837
4579.59	0.4069	2.6534	0.0555	2.5364	0.1103	62.1569
4583.67	0.4535	2.4967	0.0781	2.4037	0.0133	61.2236
4587.76	0.4401	2.3696	0.0433	2.2056	0.0000	64.0702
4591.84	0.2825	2.2759	0.0349	2.1781	0.1040	65.2848
4595.92	0.1627	2.3496	0.0257	2.2316	0.0000	64.6246
4600.00	0.7035	2.6938	0.1645	2.1715	0.0120	61.3696
4604.08	0.7367	2.5986	0.0949	2.2019	0.4590	63.5492
4608.16	0.6261	2.5850	0.2846	2.2450	0.4537	64.1672
4612.24	0.8986	2.5671	0.3693	2.2806	0.0438	63.1174
4616.33	0.7756	2.5367	0.1353	2.5912	0.1094	65.4753
4620.41	0.5293	2.5312	0.1101	2.3480	0.0130	64.3385
4624.49	0.3987	2.4252	0.0399	2.4225	0.0000	66.4394
4628.57	0.3877	2.4298	0.0125	2.5348	0.0694	64.5343
4632.65	0.2851	2.4909	0.0018	2.6247	0.0145	64.8116
4636.73	0.2657	2.1365	0.0047	1.9872	0.1005	65.4062
4640.82	0.3287	2.4086	0.0581	2.3716	0.0513	64.7323
4644.90	0.2986	2.6645	0.0346	2.6717	0.0513	63.9931
4648.98	0.5094	2.3827	0.1323	1.8982	0.0530	62.8970
4653.06	0.4603	2.4579	0.0418	2.1842	0.0120	64.8360
4657.14	0.5448	2.4900	0.1085	2.1831	0.2307	64.5255
4661.22	0.5119	2.4947	0.0386	2.3163	0.0318	61.5196
4665.31	0.4211	2.1906	0.0694	2.0943	0.0926	63.0099
4669.39	0.3721	2.2957	0.0401	2.2434	0.2753	63.0901
4673.47	0.4461	2.4581	0.0263	2.0923	0.0000	63.2496
4677.55	0.4483	2.5423	0.0447	2.2021	0.2069	64.7922
4681.63	0.5871	2.4684	0.1082	2.0580	0.2095	63.6617
4685.71	0.4614	2.5075	0.0507	2.4951	0.0524	64.9538
4689.80	0.6374	2.1856	0.1479	2.1285	0.1199	62.5675
4693.88	0.4125	2.1596	0.0705	2.2782	0.1052	65.3827
4697.96	0.2660	2.4068	0.0390	2.2712	0.0000	63.1806
4702.04	0.4037	2.4803	0.1304	2.2893	0.0315	61.6834
4706.12	0.2916	1.8263	0.0349	1.7142	0.0000	65.4238
4710.20	0.4474	2.4703	0.0724	2.3711	0.0131	62.0881
4714.29	0.2042	2.3850	0.0525	2.2188	0.0319	63.9440
4718.37	0.1960	2.3029	0.0300	2.2056	0.0000	65.8355
4722.45	0.1869	2.5969	0.0144	2.6144	0.0000	64.4088
4726.53	0.3412	2.4086	0.0705	2.1759	0.0302	63.7996
4730.61	0.4888	2.2824	0.0846	2.2407	0.1974	62.2362
4734.69	0.5018	2.4611	0.0552	2.3665	0.0196	63.9540
4738.78	0.3245	2.2172	0.0999	2.0450	0.2691	62.8269
4742.86	0.3415	2.1947	0.0809	2.1170	0.0176	63.4486
4746.94	0.2174	2.3526	0.0013	2.2847	0.0190	62.9812
4751.02	0.3009	2.5076	0.0298	2.5688	0.0000	63.6967
4755.10	0.4353	2.2586	0.0459	1.8264	0.1816	63.5423
4759.18	0.2711	2.0706	0.0183	1.9925	0.0055	63.3415
4763.27	0.3519	2.2506	0.0968	2.0328	0.0641	62.5858
4767.35	0.3034	2.0165	0.0304	1.8996	0.0877	64.8746
4771.43	1.0969	2.9860	0.4681	2.7669	0.0153	61.3217
4775.51	0.6807	2.5790	0.0677	2.3876	0.1102	64.8378
4779.59	0.4089	2.7924	0.0855	2.6456	0.0436	62.0283
4783.67	0.4235	2.2488	0.0677	2.1090	0.0355	63.5432
4787.76	0.4003	2.2783	0.0581	2.3342	0.0064	63.7048
4791.84	1.0037	2.8879	0.0924	2.4225	0.0000	61.4818
4795.92	1.0557	2.9762	0.1145	2.2854	0.0606	62.2058
4800.00	1.3137	3.1594	0.3916	2.0569	0.0674	62.5416
4804.08	0.7466	2.3224	0.1759	2.2941	0.0511	65.8916
4808.16	0.5651	2.3995	0.1630	2.3943	0.0000	61.1141
4812.24	0.7732	2.4184	0.0759	2.0412	0.1462	61.9623
4816.33	0.4437	2.5241	0.0965	2.5603	0.0874	64.9090
4820.41	0.4338	2.2821	0.1135	2.2063	0.2886	61.2912
4824.49	0.2780	2.3524	0.0118	2.3454	0.0990	64.9157
4828.57	0.3850	2.2733	0.0759	2.1262	0.3129	63.0252
4832.65	0.5174	2.2387	0.0994	2.3438	0.0456	64.1551
4836.73	0.5286	2.5499	0.0349	2.6389	0.2160	62.9586
4840.82	0.5161	2.5824	0.0583	2.5354	0.3811	63.7191
4844.90	0.5146	2.4426	0.0704	2.3804	0.0198	64.2159
4848.98	0.4742	2.2197	0.0734	1.9752	0.1514	63.1334
4853.06	0.3034	2.3106	0.0405	2.0998	0.1213	63.9885
4857.14	0.3873	2.2764	0.0366	2.1842	0.0120	63.8451
4861.22	0.1543	2.1420	0.0490	2.0200	0.0000	65.2106
4865.31	0.2030	2.2490	0.0319	2.3178	0.0902	62.6230
4869.39	0.2798	2.4493	0.0699	2.5240	0.0000	65.1741
4873.47	0.2614	2.2048	0.0755	2.2377	0.0854	64.9742
4877.55	0.2564	2.1448	0.0542	2.1493	0.1164	65.5041
4881.63	0.3103	2.1756	0.0869	2.0868	0.2420	62.7050
4885.71	0.3664	2.3737	0.1179	1.9847	0.0000	64.1291
4889.80	0.4884	2.7897	0.1473	2.6469	0.0960	62.0680
4893.88	0.7615	2.1791	0.1198	1.9674	0.0883	64.8857
4897.96	0.7894	2.1188	0.0821	1.8401	0.0603	62.8900
4902.04	1.0447	2.5804	0.1552	2.3092	0.0999	63.8853
4906.12	0.4666	2.2910	0.1549	2.2762	0.0499	65.2087
4910.20	0.5081	2.4415	0.2108	2.5849	0.1740	63.2592
4914.29	0.4718	2.3550	0.0089	2.4564	0.0478	64.2811
4918.37	0.4413	2.3316	0.1059	2.3765	0.3800	63.9473
4922.45	0.4599	2.4690	0.1370	2.3959	0.2233	63.3695
4926.53	0.3541	2.3708	0.0318	2.2712	0.0000	64.1183
4930.61	0.4047	2.1364	0.1179	2.0705	0.1047	65.0775
4934.69	0.4422	2.0687	0.0140	1.8430	0.0359	64.9058
4938.78	0.3189	2.2290	0.0503	1.9619	0.0327	62.9688
4942.86	0.3427	2.6825	0.0386	2.8214	0.0000	62.3730
4946.94	0.3741	2.6892	0.0261	2.6052	0.0727	63.9514
4951.02	0.4389	2.5306	0.0907	2.2819	0.0895	64.3925
4955.10	0.3884	2.1457	0.0536	2.1419	0.0000	64.8674
4959.18	0.2763	2.1948	0.0329	2.2111	0.1527	62.9160
4963.27	0.3627	2.4346	0.0445	2.5093	0.0000	66.2390
4967.35	0.5132	2.2586	0.0255	2.1046	0.0000	62.6699
4971.43	0.4177	2.4416	0.0939	2.6462	0.0702	63.7919
4975.51	0.4594	2.1210	0.0828	2.0899	0.0849	63.8738
4979.59	0.4575	2.3500	0.1142	2.0439	0.0170	62.7901
4983.67	0.3575	2.2030	0.0678	2.0389	0.1104	65.0064
4987.76	0.2931	2.3783	0.0977	2.1513	0.1521	64.0715
4991.84	0.3974	2.4823	0.1340	2.3764	0.1620	61.8532
4995.92	0.3814	2.3420	0.0679	2.1336	0.0118	65.7066
5000.00	0.4389	2.3867	0.0978	2.0599	0.0114	63.0969
5004.08	0.4334	2.6396	0.0374	2.4529	0.0939	61.5867
5008.16	0.6644	2.6442	0.0417	2.2316	0.0000	63.8022
5012.24	0.4836	2.4497	0.1037	2.4368	0.0000	63.9831
5016.33	0.5017	2.3205	0.0414	2.0685	0.0510	66.0014
5020.41	0.5525	2.6414	0.1115	2.5085	0.5362	62.1799
5024.49	0.6972	2.6282	0.0262	2.3193	0.2861	62.9139
5028.57	0.7342	2.7970	0.0754	2.7833	0.0306	61.5205
5032.65	0.4798	2.3069	0.0266	2.0842	0.0207	63.4879
5036.73	0.2321	2.2447	0.0498	2.2625	0.0251	65.2331
5040.82	0.1532	2.1469	0.0126	2.1253	0.0118	68.7849
5044.90	0.2092	2.2967	0.0516	2.2946	0.1622	67.7811
5048.98	0.2128	2.1444	0.0262	2.0241	0.1842	68.8767
5053.06	0.2920	2.3056	0.0370	2.1786	0.1122	63.6252
5057.14	0.5515	2.4833	0.0544	2.2476	0.3343	61.7409
5061.22	0.4685	2.2130	0.0822	2.0721	0.1886	64.8023
5065.31	0.5220	2.1761	0.0186	2.4657	0.2750	64.9458
5069.39	0.5560	2.5028	0.0371	2.2666	0.1406	63.9297
5073.47	0.4304	2.5059	0.0250	2.3218	0.0749	66.0692
5077.55	0.4863	2.7278	0.0681	2.7004	0.1254	64.8253
5081.63	0.4862	2.5621	0.0501	2.1616	0.2507	64.0705
5085.71	0.5173	2.5872	0.1086	2.3526	0.0000	62.9891
5089.80	0.4888	2.6073	0.0647	2.5190	0.2170	61.4798
5093.88	0.6433	2.3832	0.0145	2.5062	0.5166	63.0177
5097.96	0.9080	2.3537	0.1832	2.8807	0.1450	64.4673
5102.04	0.6479	2.4618	0.1836	2.5410	0.1037	63.2406
5106.12	0.6196	2.4004	0.1239	2.3757	0.0132	64.0498
5110.20	0.3726	2.2957	0.0206	2.2580	0.0000	64.6554
5114.29	0.5661	2.6914	0.0228	2.6298	0.0217	61.4288
5118.37	0.6470	2.5316	0.1412	2.3470	0.1999	64.1009
5122.45	0.3871	2.6072	0.0065	2.4685	0.2544	63.7960
5126.53	0.4396	2.3995	0.0591	2.3996	0.0526	63.3277
5130.61	0.3192	2.4956	0.0403	2.3165	0.0451	62.9394
5134.69	0.5806	2.2520	0.0910	1.8500	0.2247	63.0846
5138.78	0.6019	2.7069	0.1509	2.4941	0.6928	61.3347
5142.86	0.6777	2.6084	0.0827	2.4135	0.3127	62.4005
5146.94	0.6707	2.4044	0.1150	2.2427	0.1001	65.1770
5151.02	0.3285	2.4229	0.0931	2.5339	0.0070	61.6036
5155.10	0.3369	2.6369	0.0460	2.4855	0.0545	63.9524
5159.18	0.2530	2.5340	0.0363	2.4800	0.0000	63.9938
5163.27	0.2504	2.3800	0.0428	2.2712	0.0000	64.9026
5167.35	0.3555	2.5300	0.0071	2.3120	0.0479	63.1304
5171.43	0.3485	2.3998	0.0542	2.2016	0.0370	63.1144
5175.51	0.5574	2.3735	0.0507	2.3803	0.0000	63.6115
5179.59	0.4739	2.7931	0.0472	2.8016	0.1098	62.5374
5183.67	0.4478	2.5459	0.0543	2.8214	0.0000	63.4648
5187.76	0.2167	2.2986	0.0057	2.4910	0.0785	65.8000
5191.84	0.2941	2.3790	0.0192	2.4854	0.0537	63.2383
5195.92	0.2866	2.1219	0.0838	2.0727	0.0547	62.3771
5200.00	0.1808	2.0473	0.0282	1.9732	0.0164	65.5658
5204.08	0.4178	2.5059	0.0939	2.7143	0.0734	62.5655
5208.16	0.7402	2.5177	0.1764	2.4614	0.6243	61.1760
5212.24	0.8536	2.9063	0.1580	3.3194	0.3118	62.4941
5216.33	0.8241	2.8826	0.0477	2.8499	0.0649	61.5418
5220.41	0.8628	2.4717	0.1054	2.2059	0.0364	62.7062
5224.49	1.0695	2.5635	0.1906	2.2418	0.3172	62.3812
5228.57	0.9235	2.2826	0.0966	2.0491	0.1495	64.6386
5232.65	0.8885	2.8226	0.3563	2.6298	0.0000	61.7886
5236.73	0.5615	2.6008	0.1747	2.4899	0.0274	64.7982
5240.82	0.4885	2.4554	0.0912	2.2624	0.0063	62.8907
5244.90	0.3369	2.4313	0.0416	2.2628	0.0441	64.4042
5248.98	0.3184	2.1498	0.0281	2.0698	0.0891	61.6141
5253.06	0.2704	2.2456	0.0201	2.1006	0.0231	63.0385
5257.14	0.3623	2.3849	0.0921	2.1837	0.1907	64.9333
5261.22	0.6143	2.4250	0.2777	2.3534	0.0624	61.5797
5265.31	0.6790	2.6408	0.1337	2.6036	0.2197	65.0827
5269.39	0.3709	2.4313	0.0169	2.2024	0.0677	65.4855
5273.47	0.2518	2.3914	0.0678	2.2980	0.0000	63.7990
5277.55	0.4476	2.5326	0.0619	2.3997	0.0593	63.2917
5281.63	0.4345	2.4859	0.0620	2.3386	0.2000	63.2435
5285.71	0.7377	2.5321	0.1605	2.0364	0.1381	61.8251
5289.80	0.3731	2.2605	0.0182	2.1258	0.0484	62.9579
5293.88	0.2155	2.1549	0.0486	2.0924	0.0174	63.3484
5297.96	0.3896	1.8182	0.0491	1.6166	0.0000	62.3328
5302.04	0.4961	2.2089	0.0943	2.5240	0.0000	64.1060
5306.12	0.7440	2.1227	0.1043	2.3767	0.4685	63.4971
5310.20	0.6722	2.5675	0.1354	2.5489	0.0255	63.5972
5314.29	0.4248	2.4479	0.0924	2.3576	0.0459	62.6666
5318.37	0.5600	2.0604	0.1131	1.9421	0.1149	63.1966
5322.45	0.2639	2.2489	0.0123	2.2746	0.1214	64.1060
5326.53	0.1718	2.3771	0.0189	2.2839	0.1300	63.6367
5330.61	0.2536	2.5483	0.0186	2.5518	0.1227	62.5473
5334.69	0.6176	2.9262	0.1348	2.4583	0.1103	61.2085
5338.78	0.6942	2.4596	0.1102	2.3116	0.0111	68.3755
5342.86	0.3048	2.1157	0.0313	2.1294	0.0000	65.1296
5346.94	0.2678	2.2226	0.0422	2.0931	0.1409	64.0177
5351.02	0.3262	2.6548	0.0425	2.6312	0.0862	61.3233
5355.10	0.4799	2.5851	0.0889	2.4673	0.1768	63.2771
5359.18	0.2697	2.3724	0.0824	2.2100	0.0061	62.7104
5363.27	0.2742	2.3167	0.0408	2.1295	0.0176	61.7315
5367.35	0.3467	2.0005	0.0727	1.7412	0.0096	63.2566
5371.43	0.3851	2.1363	0.0585	1.9785	0.0755	63.3096
5375.51	0.4850	2.8346	0.1706	2.7360	0.2516	60.5123
5379.59	0.5951	2.2986	0.0442	1.9274	0.0000	63.1128
5383.67	0.4513	2.6184	0.0532	2.7668	0.0076	63.3954
5387.76	0.3559	2.4959	0.0650	2.4465	0.0269	62.9386
5391.84	0.5186	2.1269	0.0175	1.7802	0.0653	64.1326
5395.92	0.4814	2.4927	0.0806	2.6922	0.0000	63.2996
5400.00	0.2748	2.0254	0.0573	1.9742	0.0647	64.9348
5404.08	0.4011	2.4204	0.0318	2.3835	0.1218	62.1805
5408.16	0.4138	2.8285	0.0218	2.8828	0.0160	62.2795
5412.24	0.2044	2.1764	0.0190	2.1378	0.0118	65.0507
5416.33	0.6267	2.4800	0.1249	2.8214	0.0000	61.3154
5420.41	0.6534	2.4905	0.1572	2.7411	0.0826	63.8730
5424.49	0.5623	2.6709	0.0751	2.7080	0.0000	63.3481
5428.57	0.5115	2.3151	0.0846	2.1927	0.0000	64.9394
5432.65	0.5973	2.2696	0.1857	2.4800	0.0000	63.2071
5436.73	0.8092	2.5858	0.1885	2.3434	0.0065	63.0668
5440.82	0.8416	2.4061	0.1583	2.0282	0.0390	64.4856
5444.90	0.3316	2.0848	0.0258	1.9664	0.1851	64.4141
5448.98	0.4447	2.1282	0.0611	1.7965	0.0000	62.5077
5453.06	0.7996	2.3144	0.2342	1.9312	0.0107	61.1403
5457.14	0.4354	2.3295	0.1099	2.3572	0.0065	64.4187
5461.22	0.5521	2.5105	0.1385	2.3391	0.0386	62.7912
5465.31	0.3716	2.3775	0.0479	2.2039	0.1071	63.7273
5469.39	0.3101	2.1728	0.0655	1.9388	0.0161	66.1707
5473.47	0.3489	1.9171	0.0599	1.8681	0.0052	63.3786
5477.55	0.4028	2.3577	0.0286	2.3832	0.1164	64.4885
5481.63	0.4333	2.5069	0.1678	2.6460	0.0664	64.2015
5485.71	0.6326	2.3368	0.1351	2.0923	0.0000	63.1602
5489.80	0.5292	2.1950	0.0410	2.0821	0.1628	63.4367
5493.88	0.6771	2.6998	0.0881	2.4449	0.3016	62.1876
5497.96	0.6052	2.4644	0.0899	2.1962	0.2742	63.5245
5502.04	0.3712	2.4541	0.0309	2.3459	0.1083	64.6712
5506.12	0.3104	2.2951	0.0366	2.1914	0.1141	66.7829
5510.20	0.2821	2.2502	0.0770	2.2105	0.3207	64.1765
5514.29	0.4584	2.7061	0.0809	2.4901	0.0454	61.4957
5518.37	0.7069	3.1984	0.3881	2.5509	0.2970	62.2135
5522.45	0.8548	2.9517	0.2874	2.5710	0.3901	64.1207
5526.53	0.7386	2.4403	0.0638	1.9809	0.0110	64.8695
5530.61	0.4528	2.6303	0.1303	2.6541	0.2132	65.3837
5534.69	0.4449	2.6035	0.0187	2.3992	0.0330	63.3905
5538.78	0.5747	2.3496	0.0702	2.1769	0.2073	63.2207
5542.86	0.2800	2.4235	0.0284	2.3803	0.0000	65.8969
5546.94	0.4491	1.9230	0.0915	1.7914	0.0827	64.1006
5551.02	0.4169	2.2420	0.1678	2.2208	0.2208	64.5079
5555.10	0.3006	2.4227	0.0318	2.3267	0.1712	64.2231
5559.18	0.3204	2.5179	0.0654	2.3675	0.0713	66.0382
5563.27	0.4124	2.2509	0.1248	2.1136	0.0556	63.3940
5567.35	0.5531	2.3719	0.1605	2.5613	0.1150	63.8441
5571.43	0.4879	2.2928	0.1681	2.3231	0.1069	64.3375
5575.51	0.3330	1.9967	0.0920	2.0162	0.0280	64.9636
5579.59	0.2101	2.2005	0.0310	2.1546	0.0179	67.7993
5583.67	0.2893	2.4209	0.0341	2.1799	0.0000	64.3218
5587.76	0.3634	2.6426	0.0214	2.5490	0.0354	61.9995
5591.84	0.6448	2.1640	0.1039	1.8497	0.1099	63.1430
5595.92	0.4640	2.1717	0.1070	2.3377	0.1915	66.1754
5600.00	0.3956	2.2226	0.2129	2.1939	0.2039	65.5615
5604.08	0.2817	2.5805	0.0363	2.6093	0.0145	62.7520
5608.16	0.1153	2.0434	0.0071	2.0438	0.0000	68.0486
5612.24	0.1590	2.1121	0.0131	2.1294	0.0000	66.6027
5616.33	0.3289	2.3841	0.0816	2.1912	0.1100	66.4712
5620.41	0.1658	1.9611	0.0171	1.8646	0.0256	65.9978
5624.49	0.2897	1.9384	0.0246	1.8214	0.0266	61.8912
5628.57	0.3460	2.2266	0.0569	2.0950	0.1077	63.4160
5632.65	0.3708	2.3017	0.0444	2.0934	0.0686	63.5836
5636.73	0.3658	2.1574	0.0700	2.0318	0.0000	63.3962
5640.82	0.4297	2.4526	0.1114	2.4909	0.0765	64.7290
5644.90	0.4468	2.1846	0.0442	2.0616	0.1577	65.3316
5648.98	0.4292	1.9318	0.0809	2.0774	0.3370	63.3903
5653.06	0.4578	2.1037	0.0431	2.0398	0.0056	62.2143
5657.14	0.5446	2.0696	0.1435	1.9850	0.0327	64.6293
5661.22	0.6205	2.3401	0.2901	2.7885	0.0000	65.0125
5665.31	0.9681	2.7014	0.2836	2.4852	0.0384	61.9512
5669.39	0.8017	2.4669	0.1535	2.2374	0.0781	66.1427
5673.47	0.3749	2.5113	0.0949	2.4853	0.0484	65.3454
5677.55	0.5736	2.6237	0.1788	2.1939	0.0719	60.0757
5681.63	0.9052	2.5637	0.1888	1.8284	0.0000	62.8366
5685.71	1.1955	3.4098	0.4985	2.3510	0.1201	61.9344
5689.80	1.5876	3.1837	0.6795	2.1060	0.0777	62.3192
5693.88	1.0856	2.7175	0.2706	2.4087	0.0397	62.2779
5697.96	0.8535	2.7523	0.3150	2.3115	0.0000	62.3012
5702.04	0.7132	2.3577	0.0878	1.8977	0.1727	63.8122
5706.12	0.4673	2.1591	0.0867	1.8717	0.0000	64.3777
5710.20	0.4324	2.4895	0.0799	2.3223	0.0910	63.4125
5714.29	0.3632	2.2918	0.1127	2.0279	0.0148	64.0655
5718.37	0.4029	2.0539	0.0883	1.9254	0.0838	61.9283
5722.45	0.2873	2.1896	0.0115	2.1927	0.1345	62.5759
5726.53	0.4193	2.5106	0.1099	2.5624	0.1369	65.8439
5730.61	0.5437	2.8652	0.0199	2.9433	0.1495	64.7235
5734.69	0.5115	2.7495	0.1791	2.5817	0.2049	65.3324
5738.78	0.4135	2.5691	0.0372	2.3808	0.0493	66.3032
5742.86	0.3793	2.4212	0.0201	2.3368	0.1115	68.3314
5746.94	0.4361	2.2709	0.0687	2.1537	0.2899	67.1476
5751.02	0.4538	2.2528	0.0427	2.2056	0.0000	65.5002
5755.10	0.5314	2.5526	0.1367	2.6678	0.3359	66.8680
5759.18	0.4290	2.4875	0.0157	2.4511	0.0000	65.4252
5763.27	0.4811	2.0460	0.0420	1.7969	0.0377	63.8680
5767.35	0.6381	2.1624	0.2352	1.8910	0.1337	64.3473
5771.43	0.4709	2.1181	0.1467	2.0378	0.0915	64.3225
5775.51	0.3875	2.6460	0.0595	2.5096	0.0419	63.4983
5779.59	0.5253	3.0364	0.1615	3.0486	0.1489	63.8082
5783.67	0.4172	2.3519	0.1326	2.4229	0.0399	65.2821
5787.76	0.5206	2.7740	0.1122	2.9290	0.3182	62.1929
5791.84	0.5685	2.4724	0.0725	2.2668	0.0126	63.2567
5795.92	0.8392	2.8274	0.0982	2.4303	0.1223	63.2070
5800.00	0.6414	2.5603	0.1084	2.2920	0.1154	64.7053
5804.08	0.2680	2.5868	0.0421	2.5169	0.1162	63.2076
5808.16	0.4211	2.6510	0.0687	2.4084	0.0000	63.1758
5812.24	0.4079	2.5125	0.0142	2.3123	0.0580	64.3783
5816.33	0.4943	2.4143	0.1417	2.0134	0.0732	63.9320
5820.41	0.4213	2.5974	0.1018	2.5638	0.0142	65.1064
5824.49	0.3938	2.6726	0.1265	2.6895	0.1170	61.9363
5828.57	0.4838	2.5345	0.1639	2.2794	0.1317	65.6076
5832.65	0.5854	2.4981	0.1602	2.0116	0.1190	64.1592
5836.73	0.3253	2.5049	0.0570	2.4954	0.0637	65.6608
5840.82	0.7112	2.5494	0.1938	2.1772	0.6262	62.6313
5844.90	0.5867	2.3028	0.1510	2.3034	0.0623	65.1255
5848.98	0.3262	2.2857	0.0615	2.4229	0.0416	67.3980
5853.06	0.2552	2.1076	0.0212	2.1545	0.0000	66.9296
5857.14	0.1980	1.8850	0.0169	1.8717	0.0000	66.9164
5861.22	0.2569	2.1103	0.0684	1.9445	0.0873	64.8148
5865.31	0.3868	2.4602	0.0532	2.3833	0.1206	64.8385
5869.39	0.2608	2.3181	0.0365	2.3803	0.0000	66.9186
5873.47	0.2841	2.4188	0.0339	2.3894	0.1483	65.1943
5877.55	0.4765	2.7649	0.1047	2.4449	0.3016	61.6686
5881.63	0.4444	2.6862	0.0650	2.3813	0.0700	64.2166
5885.71	0.3666	2.5088	0.0690	2.3251	0.0000	65.0181
5889.80	0.1797	2.3002	0.0304	2.2492	0.0062	66.7880
5893.88	0.2395	2.2486	0.0463	2.2647	0.1031	63.7536
5897.96	0.4512	2.3972	0.0413	2.4561	0.0273	64.3208
5902.04	0.3823	2.0037	0.0584	1.9035	0.0916	65.3941
5906.12	0.6514	2.2078	0.1046	2.1593	0.1464	61.6721
5910.20	0.7916	2.3912	0.0322	2.0050	0.0549	62.7817
5914.29	0.4760	2.3028	0.0565	2.2320	0.0368	64.6626
5918.37	0.5338	2.1727	0.0527	1.9426	0.0107	62.6435
5922.45	0.3384	2.2445	0.0683	2.0200	0.0000	66.8630
5926.53	0.3281	2.5009	0.0502	2.6298	0.0000	64.2308
5930.61	0.2289	2.3486	0.0317	2.4619	0.0756	66.6400
5934.69	0.4638	2.6479	0.1584	2.5883	0.1532	62.7218
5938.78	0.3018	1.9504	0.0347	1.9393	0.0487	64.7620
5942.86	0.1950	2.3493	0.0217	2.4084	0.0000	63.8372
5946.94	0.2708	2.3584	0.0423	2.2846	0.0000	63.5297
5951.02	0.4374	2.9401	0.1198	2.9700	0.0953	61.6784
5955.10	0.6326	2.4898	0.0749	2.1197	0.1729	63.4751
5959.18	0.4346	2.3843	0.0501	2.3559	0.1266	68.8476
5963.27	0.3679	2.1032	0.0164	1.9150	0.0986	65.4508
5967.35	0.2787	2.2009	0.0487	2.0224	0.0988	66.4770
5971.43	0.3521	2.4856	0.0155	2.4273	0.0067	65.0720
5975.51	0.1921	2.3965	0.0341	2.3526	0.0000	66.1847
5979.59	0.1347	2.3975	0.0188	2.3943	0.0000	68.4654
5983.67	0.3083	2.2419	0.0239	2.1211	0.0059	63.5963
5987.76	0.2328	2.3192	0.0175	2.2121	0.0993	66.5977
5991.84	0.2381	2.2967	0.0461	2.3161	0.0064	65.9445
5995.92	0.3308	2.1211	0.0062	2.1047	0.0175	65.1509
6000.00	0.1896	1.9058	0.0192	1.9199	0.0053	80.1746
6004.08	0.1151	1.8112	0.0152	1.8391	0.0000	87.3351
6008.16	0.1147	1.7789	0.0286	1.8070	0.0000	90.1734
6012.24	0.1030	1.7664	0.0280	1.7860	0.0000	92.3869
6016.33	0.0946	1.7633	0.0235	1.7755	0.0000	90.8751
6020.41	0.1055	1.7442	0.0303	1.7652	0.0000	90.7413
6024.49	0.1014	1.7321	0.0274	1.7548	0.0000	90.8255
6028.57	0.1042	1.7115	0.0291	1.7344	0.0000	90.8484
6032.65	0.0814	1.6965	0.0176	1.7142	0.0000	90.4172
6036.73	0.0889	1.6845	0.0211	1.7042	0.0000	91.8353
6040.82	0.0772	1.6739	0.0158	1.6843	0.0000	92.7341
6044.90	0.0776	1.7299	0.0144	1.7242	0.0000	89.5134
6048.98	0.0982	1.8578	0.0145	1.8499	0.0000	84.6176
6053.06	0.6109	2.3459	0.2030	2.9110	0.0081	69.3097
6057.14	0.6857	2.8552	0.1316	3.1355	0.0150	70.7265
6061.22	0.7154	2.7763	0.1267	2.9167	0.0081	71.4523
6065.31	0.6144	2.6347	0.1039	2.7560	0.0000	74.7276
6069.39	0.4584	2.5979	0.0517	2.7399	0.0000	76.3246
6073.47	0.4300	2.5860	0.0758	2.7399	0.0000	73.7113
6077.55	0.3551	2.6253	0.0784	2.7399	0.0000	70.4384
6081.63	0.4326	2.6676	0.1131	2.7399	0.0000	70.6559
6085.71	0.4071	2.5142	0.0841	2.6764	0.0000	70.9848
6089.80	0.4115	2.3551	0.0842	2.5839	0.0000	73.6272
6093.88	0.3541	2.3186	0.1056	2.5093	0.0000	80.4274
6097.96	0.3179	2.2592	0.0922	2.4084	0.0000	85.5393
6102.04	0.3051	2.1722	0.0625	2.2980	0.0000	86.1004
6106.12	0.2524	2.1190	0.0618	2.2186	0.0000	91.5449
6110.20	0.2159	2.0889	0.0531	2.1672	0.0000	94.8201
6114.29	0.2008	2.0660	0.0729	2.1545	0.0000	91.4966
6118.37	0.1482	1.9701	0.0417	1.9964	0.0000	92.2928
6122.45	0.0990	2.0042	0.0221	2.0200	0.0000	97.2075
6126.53	0.0950	2.0215	0.0202	2.0318	0.0000	97.6766
6130.61	0.0552	2.0758	0.0064	2.0800	0.0000	100.8620
6134.69	0.0407	2.1269	0.0032	2.1294	0.0000	102.1539
6138.78	0.0533	2.1893	0.0033	2.1927	0.0000	98.1807
6142.86	0.0456	1.8288	0.0046	1.8177	0.0000	95.7255
6146.94	0.0036	1.8595	0.0004	1.8608	0.0000	103.0572
6151.02	0.0035	1.8620	0.0001	1.8608	0.0000	103.2377
6155.10	0.0033	1.8717	0.0007	1.8717	0.0000	102.1127
6159.18	0.0048	1.8713	0.0003	1.8717	0.0000	99.6921
6163.27	0.0085	1.8588	0.0003	1.8608	0.0000	94.0748
6167.35	0.1062	1.7857	0.0040	1.8284	0.0000	78.8867
6171.43	0.2323	2.0113	0.0236	1.8791	0.0052	64.9940
6175.51	0.2722	2.2352	0.0529	2.3785	0.1849	67.1900
6179.59	0.2780	2.2157	0.0240	2.2892	0.0254	67.1390
6183.67	0.7001	2.5428	0.0712	2.9133	0.2114	65.5428
6187.76	0.6589	2.9806	0.1425	3.1764	0.1607	72.9944
6191.84	0.5926	2.8383	0.2735	2.9918	0.0000	72.3105
6195.92	0.7940	3.7497	0.3233	4.1788	0.0000	85.5864
6200.00	0.6339	3.0732	0.3087	3.4170	0.0189	100.1143
6204.08	0.5618	2.8771	0.3887	3.2477	0.0000	106.1346
6208.16	0.5467	2.8759	0.3994	3.2477	0.0000	106.8816
6212.24	0.4754	2.8186	0.4965	3.2098	0.0000	107.9837
6216.33	0.4777	2.7843	0.4817	3.1724	0.0000	107.6442
6220.41	0.4435	2.7586	0.5063	3.1354	0.0000	108.8459
6224.49	0.4672	2.7422	0.4647	3.1171	0.0000	109.1954
6228.57	0.4316	2.7525	0.5163	3.1354	0.0000	109.8337
6232.65	0.4705	2.8421	0.5038	3.2287	0.0000	107.1196
6236.73	0.5739	3.2377	0.4626	3.5255	0.0000	96.3864
6240.82	1.0113	3.8693	0.1672	3.5811	0.0198	80.3355
6244.90	1.1300	4.9414	0.0867	5.5369	0.0000	81.4635
6248.98	0.8974	4.4113	0.1136	4.7820	0.0000	91.6278
6253.06	0.8091	4.4107	0.1624	4.7263	0.0000	92.1964
6257.14	0.7100	4.6598	0.1974	4.8955	0.0000	95.8941
6261.22	0.6705	4.8527	0.1787	5.0116	0.0000	88.8864
6265.31	1.0970	4.0068	0.3098	5.3455	0.0000	77.7596
6269.39	0.9612	3.2825	0.1494	5.4191	0.0150	77.6779
6273.47	0.8118	3.1507	0.0592	5.3351	0.0147	76.3231
6277.55	1.0508	3.1455	0.0734	5.0609	0.0140	77.9027
6281.63	1.1049	3.2003	0.2741	4.9147	0.0136	86.5627
6285.71	1.0435	3.0016	0.1608	4.7541	0.0000	89.4083
6289.80	1.0254	2.9896	0.2638	4.5097	0.0000	93.5351
6293.88	0.9567	2.8624	0.3256	4.3031	0.0000	99.8627
6297.96	0.9024	2.7247	0.3345	4.0820	0.0000	101.2957
6302.04	0.8864	2.7063	0.3543	3.9874	0.0000	103.4256
6306.12	0.9226	2.8228	0.3167	3.9409	0.0000	101.9403
6310.20	0.9192	2.7554	0.2198	3.8047	0.0000	98.0844
6314.29	0.9032	2.8362	0.2659	3.7824	0.0000	105.6572
6318.37	0.9129	2.9289	0.2402	3.8047	0.0000	106.3797
6322.45	0.9373	3.0025	0.2492	3.8949	0.0000	107.1499
6326.53	0.9590	3.2032	0.2602	4.0344	0.0000	104.5552
6330.61	0.9908	3.5589	0.3356	4.3539	0.0000	100.0316
6334.69	0.7954	2.8165	0.2346	3.4640	0.0000	102.4780
6338.78	0.8117	3.0372	0.1519	3.5880	0.0000	108.3217
6342.86	0.7863	3.1269	0.1605	3.6091	0.0000	109.1001
6346.94	0.7986	3.0939	0.1409	3.6091	0.0000	107.0121
6351.02	0.7660	3.1137	0.1653	3.5880	0.0000	98.1091
6355.10	0.8141	3.2787	0.1191	3.7603	0.0000	75.2501
6359.18	0.7762	3.3902	0.1340	3.8270	0.0000	72.2549
6363.27	0.7347	3.4690	0.1487	3.8270	0.0000	75.9489
6367.35	0.6066	3.6911	0.1732	3.9178	0.0000	72.4470
6371.43	0.4893	3.7933	0.1179	3.9874	0.0000	71.5614
6375.51	0.5802	3.8445	0.1541	4.1060	0.0000	75.0322
6379.59	0.4141	3.4065	0.1216	3.6021	0.0199	78.3329
6383.67	0.3381	3.4207	0.0675	3.5406	0.0969	78.9210
6387.76	0.5080	4.8635	0.0617	4.7915	0.0264	83.5001
6391.84	0.3943	3.2970	0.0960	3.2287	0.0000	101.8566
6395.92	0.1928	2.9939	0.0162	3.0271	0.0000	112.7927
6400.00	0.1181	2.9129	0.0137	2.9224	0.0000	114.7173
6404.08	0.1015	2.8333	0.0102	2.8380	0.0000	113.1087
6408.16	0.0531	2.7949	0.0031	2.7885	0.0000	112.4519
6412.24	0.0079	2.7762	0.0009	2.7722	0.0000	112.4432
6416.33	0.0039	2.8211	0.0003	2.8214	0.0000	112.9738
6420.41	0.0057	2.9584	0.0006	2.9569	0.0000	111.6319
6424.49	0.0195	3.1393	0.0012	3.1354	0.0000	110.4750
6428.57	0.1794	3.5740	0.0381	3.4236	0.0000	95.2920
6432.65	0.9091	5.0066	0.1046	3.5661	1.2582	82.0447
6436.73	0.5402	4.0926	0.0874	2.8084	0.9866	95.4371
6440.82	0.4645	3.8969	0.0247	2.6601	0.9385	103.0687
6444.90	0.4658	4.1350	0.0161	2.8207	0.9952	101.8533
6448.98	0.4916	4.3735	0.0906	2.9910	1.0553	98.5924
6453.06	0.5943	4.6655	0.1247	3.2278	1.1389	91.0480
6457.14	0.6824	4.7346	0.1607	3.2948	1.1728	83.9996
6461.22	1.1066	4.4192	0.6261	3.5927	1.3069	83.0499
6465.31	0.4786	3.6964	1.0690	3.5361	1.1936	82.8981
6469.39	0.0981	3.6199	1.0134	3.4512	1.1294	84.1311
6473.47	0.3921	3.4538	1.0092	3.2468	1.1456	88.8974
6477.55	0.1361	3.0538	1.0671	3.0440	1.0740	91.4862
6481.63	0.0544	2.9027	1.0265	2.9046	1.0248	98.0410
6485.71	0.0566	2.7497	0.9760	2.7553	0.9721	100.6105
6489.80	0.0266	2.6290	0.9288	2.6291	0.9276	103.4830
6493.88	0.0074	2.5521	0.9003	2.5531	0.9008	104.7374
6497.96	0.0049	2.4952	0.8805	2.4939	0.8799	106.6878
6502.04	0.0100	2.4413	0.8619	2.4361	0.8595	105.3259
6506.12	0.0409	2.3815	0.8415	2.3797	0.8396	100.3947
6510.20	0.0138	2.3803	0.8407	2.3797	0.8396	105.5440
6514.29	0.0084	2.4425	0.8607	2.4505	0.8646	108.0560
6518.37	0.0179	2.5514	0.9003	2.5531	0.9008	105.4537
6522.45	0.0174	2.7486	0.9691	2.7553	0.9721	102.2318
6526.53	0.2536	2.4317	0.8350	2.2840	0.8058	100.1638
6530.61	0.0105	2.3411	0.8272	2.3382	0.8250	107.8554
6534.69	0.0049	2.3652	0.8342	2.3658	0.8347	110.0950
6538.78	0.0058	2.3678	0.8359	2.3658	0.8347	108.1035
6542.86	0.0080	2.3638	0.8349	2.3658	0.8347	102.6062
6546.94	0.0255	2.3727	0.8386	2.3658	0.8347	84.7183
6551.02	0.0815	2.3924	0.8450	2.3937	0.8445	76.3711
6555.10	0.1403	2.3725	0.8637	2.3867	0.8495	75.1249
6559.18	0.1276	2.4955	0.9000	2.4867	0.8697	74.9894
6563.27	0.1601	2.4571	0.9021	2.4330	0.8322	72.0818
6567.35	0.2281	2.4239	0.9132	2.3519	0.8298	75.1791
6571.43	0.3758	2.2371	0.7389	2.5008	0.6242	79.6696
6575.51	0.5242	2.3841	0.6708	2.6991	0.7139	81.8800
6579.59	0.5651	2.7571	0.7823	3.3354	0.9386	89.7613
6583.67	0.4245	2.2121	0.6519	2.5983	0.7337	107.2773
6587.76	0.4120	2.1009	0.6001	2.4504	0.6919	114.1499
6591.84	0.2870	1.9785	0.6332	2.3936	0.6759	115.6456
6595.92	0.2588	1.9248	0.6261	2.3381	0.6602	114.5097
6600.00	0.2463	1.8958	0.6201	2.3108	0.6525	115.4242
6604.08	0.2559	1.8833	0.6111	2.2839	0.6449	114.5079
6608.16	0.3527	1.9526	0.5817	2.3108	0.6525	115.1967
6612.24	0.3913	2.0482	0.5935	2.4076	0.6799	113.4529
6616.33	0.4574	2.2222	0.6091	2.5530	0.7209	112.3871
6620.41	0.5169	2.4412	0.6528	2.7714	0.7826	99.7874
6624.49	0.9124	3.6744	0.8717	4.2090	1.1312	84.3187
6628.57	0.7700	3.0985	0.6335	3.9257	0.0390	99.7214
6632.65	0.7035	2.9799	0.7030	3.7824	0.0000	107.1859
6636.73	0.7331	3.2292	0.7195	4.0108	0.0000	102.1006
6640.82	0.7652	3.6122	0.7156	4.3539	0.0000	101.5941
6644.90	0.7823	3.8593	0.7555	4.5629	0.0000	94.4950
6648.98	0.8288	4.0213	0.8339	4.8384	0.0000	84.0301
6653.06	0.6975	4.2824	0.8877	4.9824	0.0000	83.7789
6657.14	0.6603	4.2598	0.8325	4.8669	0.0000	85.8508
6661.22	0.5897	4.0476	0.8308	4.6712	0.0000	88.2921
6665.31	0.5834	3.9028	0.7296	4.4311	0.0000	94.0677
6669.39	0.5632	3.7039	0.6940	4.1788	0.0000	98.9981
6673.47	0.5412	3.5054	0.6761	3.9874	0.0000	102.3664
6677.55	0.5032	3.3318	0.6568	3.8047	0.0000	106.1679
6681.63	0.5163	3.2549	0.5361	3.6303	0.0000	109.9558
6685.71	0.5064	3.1647	0.4556	3.4844	0.0000	109.5009
6689.80	0.4991	3.1360	0.3588	3.3837	0.0000	108.2358
6693.88	0.4854	3.0766	0.3354	3.3247	0.0000	109.8012
6697.96	0.4428	3.0711	0.2422	3.2477	0.0000	112.6344
6702.04	0.4150	2.9844	0.2227	3.1354	0.0000	114.3454
6706.12	0.3836	2.9304	0.1816	3.0628	0.0000	115.1441
6710.20	0.3081	2.9169	0.1057	2.9918	0.0000	115.9321
6714.29	0.2531	2.8871	0.0688	2.9396	0.0000	114.9509
6718.37	0.2094	2.8255	0.0465	2.8547	0.0000	114.7390
6722.45	0.1946	2.8014	0.0379	2.8214	0.0000	113.0769
6726.53	0.1826	2.7978	0.0344	2.8214	0.0000	113.3677
6730.61	0.2198	2.7658	0.0534	2.8049	0.0000	112.9428
6734.69	0.2241	2.7752	0.0555	2.8214	0.0000	112.6302
6738.78	0.1810	2.8462	0.0338	2.8715	0.0000	112.8338
6742.86	0.1587	2.9255	0.0251	2.9396	0.0000	112.8730
6746.94	0.1768	3.0266	0.0307	3.0449	0.0000	113.8659
6751.02	0.2010	3.1588	0.0364	3.1911	0.0000	113.1096
6755.10	0.1689	3.3600	0.0239	3.3837	0.0000	108.3852
6759.18	0.1436	3.5126	0.0179	3.5255	0.0000	106.3847
6763.27	0.1054	3.6652	0.0092	3.6732	0.0000	108.7173
6767.35	0.0584	3.7785	0.0015	3.8047	0.0000	106.0476
6771.43	0.0963	3.1899	0.0071	3.0989	0.0000	106.2621
6775.51	0.1286	2.7550	0.0322	2.6452	0.0000	103.2955
6779.59	0.1036	3.1539	0.0098	3.1911	0.0000	95.5315
6783.67	0.1220	3.0060	0.0160	3.0808	0.0000	83.7582
6787.76	0.0702	2.9690	0.0065	2.9569	0.0000	81.5700
6791.84	0.0745	2.9765	0.0064	2.9396	0.0000	81.8058
6795.92	0.1443	3.0346	0.0157	3.0449	0.0000	83.0314
6800.00	0.0920	2.9671	0.0071	2.9569	0.0000	80.6222
6804.08	0.2464	3.1437	0.0041	2.9224	0.0000	79.6736
6808.16	0.2728	3.0417	0.0201	2.8325	0.0078	79.8817
6812.24	0.2440	3.0037	0.0182	2.8659	0.0079	80.8779
6816.33	0.2754	3.7658	0.0261	3.8722	0.0000	85.8645
6820.41	0.0906	4.0412	0.0144	4.0581	0.0000	96.8618
6824.49	0.0150	4.1109	0.0008	4.1060	0.0000	100.4246
6828.57	0.0071	4.2285	0.0005	4.2281	0.0000	104.5454
6832.65	0.0072	4.3011	0.0003	4.3031	0.0000	106.6973
6836.73	0.0011	4.3284	0.0000	4.3284	0.0000	108.7911
6840.82	0.0016	4.3538	0.0001	4.3539	0.0000	109.5225
6844.90	0.0014	4.3539	0.0000	4.3539	0.0000	109.3361
6848.98	0.0144	4.3675	0.0010	4.3539	0.0000	107.1773
6853.06	0.0301	4.2003	0.0015	4.1788	0.0000	105.3420
6857.14	0.0569	4.3882	0.0036	4.3795	0.0000	102.2393
6861.22	0.0494	4.2515	0.0062	4.2281	0.0000	103.0452
6865.31	0.1004	4.2358	0.0108	4.2034	0.0000	99.2470
6869.39	0.0705	4.1771	0.0057	4.1060	0.0000	102.0833
6873.47	0.0846	4.1106	0.0075	4.0344	0.0000	101.5148
6877.55	0.1257	4.0430	0.0141	3.9874	0.0000	100.5266
6881.63	0.1144	4.0120	0.0060	3.9178	0.0000	99.8561
6885.71	0.1443	3.9629	0.0082	3.9255	0.0109	101.0456
6889.80	0.1405	3.9240	0.0183	3.8495	0.0000	100.8750
6893.88	0.0974	3.7617	0.0093	3.7165	0.0000	104.2878
6897.96	0.1485	3.9476	0.0063	3.8949	0.0000	100.2667
6902.04	0.0531	3.6793	0.0099	3.6517	0.0000	106.0294
6906.12	0.1540	4.0116	0.0207	3.9640	0.0000	98.6228
6910.20	0.0456	3.5136	0.0085	3.4912	0.0097	106.0902
6914.29	0.0864	3.7176	0.0049	3.6732	0.0000	101.3034
6918.37	0.0864	3.4506	0.0105	3.4236	0.0000	103.5686
6922.45	0.0192	3.3796	0.0019	3.3837	0.0000	107.7869
6926.53	0.0215	3.6269	0.0011	3.6303	0.0000	104.6743
6930.61	0.0545	3.3581	0.0139	3.3907	0.0466	104.4516
6934.69	0.0110	3.2897	0.0012	3.2860	0.0000	108.7504
6938.78	0.0151	3.3006	0.0015	3.3053	0.0000	109.0379
6942.86	0.0106	3.2429	0.0014	3.2477	0.0000	111.2727
6946.94	0.0036	3.1914	0.0000	3.1911	0.0000	114.9819
6951.02	0.0015	3.1537	0.0001	3.1539	0.0000	115.5700
6955.10	0.0020	3.0989	0.0001	3.0989	0.0000	115.4251
6959.18	0.0054	3.0466	0.0002	3.0449	0.0000	114.8966
6963.27	0.0043	3.0089	0.0006	3.0094	0.0000	115.0357
6967.35	0.0078	2.9608	0.0006	2.9569	0.0000	114.1417
6971.43	0.0116	2.9003	0.0004	2.9053	0.0000	113.1970
6975.51	0.0108	2.8108	0.0008	2.8049	0.0000	113.3810
6979.59	0.0078	2.7354	0.0015	2.7399	0.0000	115.0471
6983.67	0.0063	2.7048	0.0012	2.7080	0.0000	114.6421
6987.76	0.0125	2.6064	0.0012	2.6144	0.0000	111.9553
6991.84	0.0200	2.5753	0.0037	2.5839	0.0000	101.5318
6995.92	0.0481	3.1370	0.0025	3.1539	0.0000	84.5372
7000.00	0.0383	3.1053	0.0029	3.0989	0.0000	85.5677
7004.08	0.0455	3.0203	0.0006	3.0271	0.0000	85.1123
7008.16	0.0665	2.9569	0.0056	2.9569	0.0000	83.2133
7012.24	0.0635	2.9810	0.0046	2.9918	0.0000	86.8675
7016.33	0.1153	2.9238	0.0201	2.9396	0.0000	78.3248
7020.41	0.1249	2.9645	0.0079	3.0271	0.0000	83.1572
7024.49	0.0917	2.7544	0.0238	2.7560	0.0000	84.3339
7028.57	0.0183	2.7288	0.0024	2.7239	0.0000	101.0650
7032.65	0.0155	2.7122	0.0023	2.7080	0.0000	108.6767
7036.73	0.0091	2.6478	0.0010	2.6452	0.0000	113.6836
7040.82	0.0071	2.5643	0.0001	2.5688	0.0000	114.6932
7044.90	0.0051	2.4809	0.0005	2.4800	0.0000	114.8134
7048.98	0.0071	2.4599	0.0006	2.4655	0.0000	114.1991
7053.06	0.0020	2.4653	0.0001	2.4655	0.0000	115.4343
7057.14	0.0079	2.4405	0.0001	2.4368	0.0000	111.7839
7061.22	0.0124	2.5198	0.0010	2.5240	0.0000	107.6968
7065.31	0.0334	2.6343	0.0015	2.6144	0.0000	98.1640
7069.39	0.4557	2.9854	0.1164	2.8549	0.0363	87.9755
7073.47	0.8425	3.3494	0.6242	4.3542	0.0549	94.8358
7077.55	0.7586	3.3397	0.6674	4.1221	0.0114	99.0366
7081.63	0.7446	3.2069	0.5586	3.8722	0.0000	97.2452
7085.71	0.7461	3.4336	0.3961	3.7603	0.0000	99.0620
7089.80	0.7235	3.1813	0.4390	3.7020	0.0204	98.5102
7093.88	0.7418	3.3142	0.3470	3.6375	0.0101	100.8573
7097.96	0.6670	3.4028	0.3033	3.6876	0.0102	96.8353
7102.04	0.6042	3.6238	0.0812	3.6732	0.0000	100.2635
7106.12	0.5341	3.5887	0.1269	3.7457	0.0104	94.5427
7110.20	0.3998	3.5737	0.0537	3.6096	0.0602	97.2852
7114.29	0.3285	2.4948	0.0925	2.5389	0.0000	102.0511
7118.37	0.3284	2.3904	0.1735	2.5093	0.0000	104.5186
7122.45	0.3469	2.4135	0.1985	2.5538	0.0000	109.6035
7126.53	0.3326	2.4601	0.1683	2.5839	0.0000	112.6149
7130.61	0.3466	2.5540	0.1767	2.6764	0.0000	115.5047
7134.69	0.3448	2.6541	0.1625	2.7722	0.0000	114.6777
7138.78	0.3024	2.7102	0.1117	2.7885	0.0000	115.1127
7142.86	0.2989	2.7646	0.1057	2.8380	0.0000	115.2472
7146.94	0.2972	2.8160	0.1019	2.8884	0.0000	115.3422
7151.02	0.2910	2.8751	0.0946	2.9396	0.0000	115.0143
7155.10	0.2967	2.9515	0.0960	3.0094	0.0000	114.2385
7159.18	0.3394	3.0477	0.1260	3.1354	0.0000	114.2142
7163.27	0.3494	3.2389	0.1228	3.3247	0.0000	109.9266
7167.35	0.3362	3.6438	0.1006	3.6948	0.0000	102.1474
7171.43	0.2512	3.0569	0.0387	3.0449	0.0000	104.5998
7175.51	0.1153	2.6459	0.0077	2.7399	0.0000	102.9832
7179.59	0.1235	2.4666	0.0072	2.5688	0.0000	94.7646
7183.67	0.1569	2.9969	0.0086	3.0868	0.0085	108.9481
7187.76	0.0385	3.3024	0.0051	3.3247	0.0000	109.2460
7191.84	0.0184	3.2616	0.0013	3.2668	0.0000	110.3746
7195.92	0.0100	3.1860	0.0004	3.1911	0.0000	113.7657
7200.00	0.0094	3.0778	0.0006	3.0808	0.0000	114.8048
7204.08	0.0145	2.9620	0.0009	2.9569	0.0000	111.3250
7208.16	0.0629	3.0384	0.0050	2.9918	0.0000	92.7924
7212.24	0.0905	2.8793	0.0053	2.8380	0.0000	83.6287
7216.33	0.1134	2.9086	0.0139	2.9569	0.0000	83.1068
7220.41	0.2266	2.8731	0.0193	2.7885	0.0000	78.5106
7224.49	0.1561	2.9414	0.0304	2.9000	0.0403	77.2293
7228.57	0.1274	3.0723	0.0125	3.0812	0.0514	83.5200
7232.65	0.1502	3.0947	0.0027	3.0389	0.0084	79.7791
7236.73	0.1987	3.0717	0.0117	2.9569	0.0000	80.3027
7240.82	0.1966	3.4034	0.0355	3.4919	0.0680	85.7816
7244.90	0.1641	3.5785	0.0157	3.6517	0.0000	94.1578
7248.98	0.0433	3.7127	0.0014	3.7165	0.0000	100.2063
7253.06	0.0211	3.7735	0.0007	3.7824	0.0000	105.0444
7257.14	0.0178	3.8812	0.0031	3.8949	0.0000	106.6796
7261.22	0.0188	4.0092	0.0010	4.0108	0.0000	104.6560
7265.31	0.0190	4.1387	0.0027	4.1544	0.0000	104.4252
7269.39	0.0252	4.0301	0.0024	4.0344	0.0000	99.2789
7273.47	0.1787	3.7725	0.0136	3.8047	0.0000	90.0727
7277.55	0.1938	3.4137	0.0138	3.4641	0.0286	84.3613
7281.63	0.3150	3.5299	0.0082	3.6410	0.1634	84.2683
7285.71	0.5428	3.7556	0.0772	3.6091	0.0000	83.8092
7289.80	0.6961	4.7988	0.1630	5.0807	0.0141	88.4171
7293.88	0.5763	4.7498	0.1523	4.9051	0.0136	95.6914
7297.96	0.5523	4.3814	0.1629	4.5363	0.0000	99.7972
7302.04	0.5146	4.1456	0.1419	4.3031	0.0000	104.8831
7306.12	0.3803	3.7944	0.0847	3.9178	0.0000	106.1332
7310.20	0.0132	3.6894	0.0021	3.6948	0.0000	110.5059
7314.29	0.0145	3.5939	0.0016	3.5880	0.0000	108.4850
7318.37	0.2168	2.7526	0.0299	2.6298	0.0000	105.3585
7322.45	0.0265	3.0004	0.0045	3.0094	0.0000	112.2237
7326.53	0.0099	3.1313	0.0011	3.1354	0.0000	113.6111
7330.61	0.0047	3.1342	0.0002	3.1354	0.0000	113.4855
7334.69	0.0073	3.0597	0.0005	3.0628	0.0000	113.3129
7338.78	0.0086	2.9586	0.0007	2.9569	0.0000	114.6469
7342.86	0.0117	2.7736	0.0003	2.7722	0.0000	114.2809
7346.94	0.0164	2.5737	0.0015	2.5839	0.0000	113.1820
7351.02	0.3505	2.6940	0.0701	2.3115	0.0000	101.5314
7355.10	0.0961	3.0005	0.0083	3.0271	0.0000	102.0554
7359.18	0.0540	2.8315	0.0050	2.7885	0.0000	95.4804
7363.27	0.2779	2.8598	0.0702	2.7399	0.0000	79.9860
7367.35	0.1420	3.0302	0.0089	2.9801	0.0164	81.5549
7371.43	0.0825	3.1079	0.0052	3.1171	0.0000	83.1986
7375.51	0.0949	3.0787	0.0075	3.0271	0.0000	83.1348
7379.59	0.1138	2.9637	0.0067	2.9976	0.0083	84.8474
7383.67	0.0937	3.4677	0.0127	3.4844	0.0000	87.2503
7387.76	0.0645	3.6661	0.0068	3.6732	0.0000	96.4964
7391.84	0.0173	3.7180	0.0013	3.7165	0.0000	103.3811
7395.92	0.0128	3.7629	0.0009	3.7603	0.0000	107.1748
7400.00	0.0073	3.8492	0.0006	3.8495	0.0000	109.9269
7404.08	0.0213	4.0415	0.0011	4.0581	0.0000	106.2109
7408.16	0.0129	4.1133	0.0004	4.1060	0.0000	106.6937
7412.24	0.0145	4.1758	0.0010	4.1788	0.0000	100.5388
7416.33	0.2073	4.1755	0.0256	4.2780	0.0000	87.8944
7420.41	0.4195	3.4466	0.0883	3.3053	0.0000	84.1004
7424.49	0.5454	3.7826	0.1231	3.9874	0.0000	83.6971
7428.57	1.0572	4.4744	0.2544	5.3351	0.0147	83.0302
7432.65	0.8617	4.9003	0.2457	5.2523	0.0000	88.8314
7436.73	0.6727	4.7352	0.1983	4.9532	0.0000	94.8539
7440.82	0.4654	4.5745	0.0963	4.6712	0.0000	100.2124
7444.90	0.3303	4.3273	0.0366	4.3795	0.0000	103.8061
7448.98	0.3145	3.9939	0.0313	4.0820	0.0000	104.8593
7453.06	0.2978	3.6758	0.0354	3.7383	0.0000	107.6185
7457.14	0.1793	3.5896	0.0242	3.6091	0.0000	109.0753
7461.22	0.0973	3.6020	0.0096	3.6091	0.0000	105.2841
7465.31	0.1021	2.6496	0.0039	2.5991	0.0000	106.7740
7469.39	0.0263	2.9856	0.0033	3.0094	0.0000	112.1410
7473.47	0.0098	3.0666	0.0019	3.0628	0.0000	114.0101
7477.55	0.0026	3.0274	0.0001	3.0271	0.0000	116.1050
7481.63	0.0027	2.9565	0.0002	2.9569	0.0000	115.9876
7485.71	0.0049	2.8220	0.0005	2.8214	0.0000	115.4166
7489.80	0.0156	2.6751	0.0014	2.6764	0.0000	113.4592
7493.88	0.0379	2.5099	0.0059	2.4946	0.0000	109.4660
7497.96	0.1124	2.9224	0.0190	2.9569	0.0000	100.6857
7502.04	0.0889	2.8415	0.0027	2.8380	0.0000	92.4003
7506.12	0.4901	3.2729	0.0650	3.6518	0.0304	77.7290
7510.20	0.2648	2.7332	0.0332	2.6822	0.0537	79.7135
7514.29	0.1245	2.9485	0.0175	2.9284	0.0403	80.8909
7518.37	0.1032	3.0423	0.0066	3.0628	0.0000	80.8990
7522.45	0.1914	3.0962	0.0239	3.1052	0.0427	78.6160
7526.53	0.0801	2.9399	0.0092	2.9396	0.0000	83.5214
7530.61	0.1141	2.9355	0.0118	2.9743	0.0000	75.2659
7534.69	0.0702	2.7003	0.0149	2.7399	0.0000	85.5548
7538.78	0.1010	2.6465	0.0103	2.6922	0.0000	82.1255
7542.86	0.0601	3.6074	0.0034	3.6303	0.0000	90.9418
7546.94	0.0321	3.6656	0.0036	3.6732	0.0000	98.2195
7551.02	0.0145	3.7776	0.0005	3.7824	0.0000	103.0554
7555.10	0.0147	3.8774	0.0001	3.8722	0.0000	103.9417
7559.18	0.0289	4.1352	0.0021	4.1544	0.0000	100.9146
7563.27	0.0167	4.2667	0.0020	4.2780	0.0000	101.2915
7567.35	0.0228	4.3618	0.0035	4.3795	0.0000	93.5164
7571.43	0.2725	4.1449	0.0248	4.2530	0.0000	84.2081
7575.51	0.4601	3.5061	0.0287	3.7415	0.1528	83.0037
7579.59	0.4515	3.4714	0.0211	3.6953	0.0616	80.4095
7583.67	1.0787	4.0481	0.1645	5.4191	0.0150	80.2210
7587.76	1.1075	4.4886	0.3998	5.3142	0.0000	85.3079
7591.84	1.0086	4.5197	0.4693	5.1607	0.0000	87.2441
7595.92	0.9129	4.3403	0.3854	4.8384	0.0000	92.8254
7600.00	0.7353	4.1668	0.2307	4.4572	0.0000	97.3466
7604.08	0.6063	3.8584	0.1736	4.0820	0.0000	101.2622
7608.16	0.5211	3.4776	0.1784	3.6732	0.0000	105.4802
7612.24	0.4712	3.3583	0.1298	3.5049	0.0000	106.2522
7616.33	0.5347	3.3121	0.0881	3.4844	0.0000	103.8853
7620.41	0.3152	2.5512	0.0727	2.6452	0.0000	104.9594
7624.49	0.3410	2.8519	0.0756	2.9569	0.0000	112.6276
7628.57	0.2268	2.9905	0.0263	3.0271	0.0000	114.5563
7632.65	0.2524	2.9822	0.0316	3.0271	0.0000	113.7604
7636.73	0.1883	2.9408	0.0180	2.9569	0.0000	113.6495
7640.82	0.1057	2.8477	0.0057	2.8547	0.0000	114.2734
7644.90	0.0675	2.6778	0.0051	2.6764	0.0000	113.0349
7648.98	0.0277	2.5270	0.0029	2.5093	0.0000	110.0625
7653.06	0.2236	2.8416	0.0480	2.9743	0.0000	97.0239
7657.14	0.1603	2.7628	0.0236	2.8380	0.0000	91.3546
7661.22	0.1624	2.8910	0.0191	2.9396	0.0000	86.3571
7665.31	0.2332	2.7057	0.0122	2.7722	0.0000	77.8358
7669.39	0.0991	2.9177	0.0091	2.8941	0.0160	81.4960
7673.47	0.0736	2.9814	0.0074	3.0094	0.0000	81.3683
7677.55	0.0945	3.0173	0.0111	3.0094	0.0000	81.8626
7681.63	0.0712	2.9373	0.0103	2.8547	0.0000	84.0186
7685.71	0.0502	2.9188	0.0047	2.9396	0.0000	84.2054
7689.80	0.0733	2.6912	0.0031	2.7080	0.0000	84.0373
7693.88	0.1025	2.5672	0.0089	2.6246	0.0072	82.4177
7697.96	0.1739	2.8529	0.0092	2.9396	0.0000	75.7234
7702.04	0.0600	2.8587	0.0100	2.8547	0.0000	82.1125
7706.12	0.1255	2.7812	0.0063	2.7722	0.0000	76.1149
